%OpenBCI Raw EEG Data
%Number of channels = 4
%Sample Rate = 200 Hz
%Board = OpenBCI_GUI$BoardGanglionBLE
Sample Index, EXG Channel 0, EXG Channel 1, EXG Channel 2, EXG Channel 3, Accel Channel 0, Accel Channel 1, Accel Channel 2, Other, Other, Other, Other, Other, Timestamp, Other, Timestamp (Formatted)
0.0, 533.2592450319789, 671.2035849476233, -2296.8445981871337, -940.8017530534416, 0.0, 0.0, 0.0, 0.0, 0.0, 0.0, 0.0, 0.0, 1.677029458077073E9, 0.0, 2023-02-21 19:30:58.077
1.0, 750.5642620073631, 625.2888331916183, -2286.567353108898, -1117.4503176105209, 0.0, -0.09600000455975533, 0.0, 0.0, 0.0, 0.0, 0.0, 0.0, 1.67702945810108E9, 0.0, 2023-02-21 19:30:58.101
1.0, 903.3765741968527, 685.0673940833658, -2252.2369414656423, -1266.6536263427697, 0.0, -0.09600000455975533, 0.0, 0.0, 0.0, 0.0, 0.0, 0.0, 1.67702945810108E9, 0.0, 2023-02-21 19:30:58.101
2.0, 755.9366282937117, 841.6906643277034, -2372.414886641782, -1255.5629530241713, 0.01600000075995922, -0.09600000455975533, 0.0, 0.0, 0.0, 0.0, 0.0, 0.0, 1.677029458125082E9, 0.0, 2023-02-21 19:30:58.125
2.0, 885.2492791116238, 762.6516186641529, -2316.3986651054583, -1396.3346573063172, 0.01600000075995922, -0.09600000455975533, 0.0, 0.0, 0.0, 0.0, 0.0, 0.0, 1.677029458125082E9, 0.0, 2023-02-21 19:30:58.125
3.0, 695.9112340048887, 827.6585596939549, -2311.905175308697, -1400.28025175957, 0.01600000075995922, -0.09600000455975533, 0.0, 0.0, 0.0, 0.0, 0.0, 0.0, 1.67702945814907E9, 0.0, 2023-02-21 19:30:58.149
3.0, 581.6554204085842, 947.3914567753673, -2217.9345790720545, -1391.923445308581, 0.01600000075995922, -0.09600000455975533, 0.0, 0.0, 0.0, 0.0, 0.0, 0.0, 1.67702945814907E9, 0.0, 2023-02-21 19:30:58.149
4.0, 395.8945896094665, 805.0770437614992, -2060.3501545391046, -1263.7982127266005, 0.01600000075995922, -0.09600000455975533, 0.0, 0.0, 0.0, 0.0, 0.0, 0.0, 1.677029458197063E9, 0.0, 2023-02-21 19:30:58.197
4.0, 400.0589682101272, 823.9392291880213, -1955.1318091857247, -1391.3493706653826, 0.01600000075995922, -0.09600000455975533, 0.0, 0.0, 0.0, 0.0, 0.0, 0.0, 1.677029458197063E9, 0.0, 2023-02-21 19:30:58.197
5.0, 193.73429750464857, 878.4108720426448, -2057.088961777743, -1220.3480550413951, 0.01600000075995922, -0.09600000455975533, 0.0, 0.0, 0.0, 0.0, 0.0, 0.0, 1.677029458245073E9, 0.0, 2023-02-21 19:30:58.245
5.0, 25.870757943484932, 1041.3508333121426, -1944.6021208604798, -1266.0982511993498, 0.01600000075995922, -0.09600000455975533, 0.0, 0.0, 0.0, 0.0, 0.0, 0.0, 1.677029458245073E9, 0.0, 2023-02-21 19:30:58.245
6.0, 194.10828750021756, 1183.4352424787357, -1989.6398660768755, -1135.7851771432906, 0.01600000075995922, -0.09600000455975533, 0.0, 0.0, 0.0, 0.0, 0.0, 0.0, 1.67702945826908E9, 0.0, 2023-02-21 19:30:58.269
6.0, 389.7087950827554, 1190.4587745955214, -2218.304829167668, -1268.110317375511, 0.01600000075995922, -0.09600000455975533, 0.0, 0.0, 0.0, 0.0, 0.0, 0.0, 1.67702945826908E9, 0.0, 2023-02-21 19:30:58.269
7.0, 249.3634393955581, 1407.7207827214152, -2085.405614292249, -1133.59920561919, 0.01600000075995922, -0.09600000455975533, 0.0, 0.0, 0.0, 0.0, 0.0, 0.0, 1.677029458293079E9, 0.0, 2023-02-21 19:30:58.293
7.0, 354.9539047945291, 1497.5774890067987, -2101.6311702500097, -962.5137422461994, 0.01600000075995922, -0.09600000455975533, 0.0, 0.0, 0.0, 0.0, 0.0, 0.0, 1.677029458293079E9, 0.0, 2023-02-21 19:30:58.293
8.0, 211.88590193958953, 1712.6591354585253, -2273.6516086119227, -1037.872726353351, 0.01600000075995922, -0.09600000455975533, 0.0, 0.0, 0.0, 0.0, 0.0, 0.0, 1.677029458317089E9, 0.0, 2023-02-21 19:30:58.317
8.0, 139.45712944772094, 1473.621559840627, -2468.657472101506, -936.7925803009421, 0.01600000075995922, -0.09600000455975533, 0.0, 0.0, 0.0, 0.0, 0.0, 0.0, 1.677029458317089E9, 0.0, 2023-02-21 19:30:58.317
9.0, -61.54379367083311, 1649.0621367120184, -2563.88467472326, -896.6036153770983, 0.01600000075995922, -0.09600000455975533, 0.0, 0.0, 0.0, 0.0, 0.0, 0.0, 1.677029458341056E9, 0.0, 2023-02-21 19:30:58.341
9.0, -25.12651785230264, 1669.0706014749594, -2501.847214258276, -716.8528038067743, 0.01600000075995922, -0.09600000455975533, 0.0, 0.0, 0.0, 0.0, 0.0, 0.0, 1.677029458341056E9, 0.0, 2023-02-21 19:30:58.341
10.0, -203.16258529294282, 1844.1502780006267, -2292.0481764939614, -939.6236845673993, 0.01600000075995922, -0.09600000455975533, 1.008000047877431, 0.0, 0.0, 0.0, 0.0, 0.0, 1.677029458365085E9, 0.0, 2023-02-21 19:30:58.365
10.0, -399.34090741863474, 1726.507984994445, -2185.934125101194, -904.4555353340693, 0.01600000075995922, -0.09600000455975533, 1.008000047877431, 0.0, 0.0, 0.0, 0.0, 0.0, 1.677029458365085E9, 0.0, 2023-02-21 19:30:58.365
11.0, -202.3136280030012, 1575.7301783808507, -2019.7142715705559, -983.4366125483066, 0.01600000075995922, -0.09600000455975533, 1.008000047877431, 0.0, 0.0, 0.0, 0.0, 0.0, 1.677029458389078E9, 0.0, 2023-02-21 19:30:58.389
11.0, -7.199307414703071, 1728.280697573442, -1915.3130943574943, -1023.098251578398, 0.01600000075995922, -0.09600000455975533, 1.008000047877431, 0.0, 0.0, 0.0, 0.0, 0.0, 1.677029458389078E9, 0.0, 2023-02-21 19:30:58.389
12.0, -145.9402460209094, 1965.0500238682143, -1913.7068073265254, -1230.6402597194538, 0.01600000075995922, -0.09600000455975533, 1.008000047877431, 0.0, 0.0, 0.0, 0.0, 0.0, 1.677029458413082E9, 0.0, 2023-02-21 19:30:58.413
12.0, -80.78931884281337, 2101.423605802469, -2113.4081152104773, -1219.0129107572138, 0.01600000075995922, -0.09600000455975533, 1.008000047877431, 0.0, 0.0, 0.0, 0.0, 0.0, 1.677029458413082E9, 0.0, 2023-02-21 19:30:58.413
13.0, -196.76548641873524, 2161.968846185133, -1924.4777191989124, -1232.3905328987166, 0.01600000075995922, -0.09600000455975533, 1.008000047877431, 0.0, 0.0, 0.0, 0.0, 0.0, 1.677029458437064E9, 0.0, 2023-02-21 19:30:58.437
13.0, -314.71632117126137, 1974.2464378592558, -2154.0402582790703, -993.7344270762987, 0.01600000075995922, -0.09600000455975533, 1.008000047877431, 0.0, 0.0, 0.0, 0.0, 0.0, 1.677029458437064E9, 0.0, 2023-02-21 19:30:58.437
14.0, -552.1102107586339, 1831.3411206523888, -2108.791208715178, -981.3516183230095, 0.01600000075995922, -0.09600000455975533, 1.008000047877431, 0.0, 0.0, 0.0, 0.0, 0.0, 1.677029458461088E9, 0.0, 2023-02-21 19:30:58.461
14.0, -489.9886025446467, 2031.567884480115, -1991.4892466049641, -861.9889713372104, 0.01600000075995922, -0.09600000455975533, 1.008000047877431, 0.0, 0.0, 0.0, 0.0, 0.0, 1.677029458461088E9, 0.0, 2023-02-21 19:30:58.461
15.0, -660.7655241712928, 1895.1344641465694, -1940.1871689627878, -981.766747218091, 0.01600000075995922, -0.09600000455975533, 1.008000047877431, 0.0, 0.0, 0.0, 0.0, 0.0, 1.677029458485084E9, 0.0, 2023-02-21 19:30:58.485
15.0, -423.0537430876866, 2127.2420051465742, -1767.2710245614871, -881.9357277508825, 0.01600000075995922, -0.09600000455975533, 1.008000047877431, 0.0, 0.0, 0.0, 0.0, 0.0, 1.677029458485084E9, 0.0, 2023-02-21 19:30:58.485
16.0, -190.56473229220137, 1887.5480770864524, -1951.728500226047, -1080.9750733426772, 0.01600000075995922, -0.09600000455975533, 1.008000047877431, 0.0, 0.0, 0.0, 0.0, 0.0, 1.677029458509052E9, 0.0, 2023-02-21 19:30:58.509
16.0, 12.926964196842164, 1815.7102087875828, -1949.2882155049592, -1054.3413758082315, 0.01600000075995922, -0.09600000455975533, 1.008000047877431, 0.0, 0.0, 0.0, 0.0, 0.0, 1.677029458509052E9, 0.0, 2023-02-21 19:30:58.509
17.0, -169.3763290932402, 1799.931570874527, -1975.6657298924401, -1174.3472855864093, 0.01600000075995922, -0.09600000455975533, 1.008000047877431, 0.0, 0.0, 0.0, 0.0, 0.0, 1.677029458533073E9, 0.0, 2023-02-21 19:30:58.533
17.0, -104.7714273086749, 1785.641413143836, -1981.0268764789216, -1228.7572200917639, 0.01600000075995922, -0.09600000455975533, 1.008000047877431, 0.0, 0.0, 0.0, 0.0, 0.0, 1.677029458533073E9, 0.0, 2023-02-21 19:30:58.533
18.0, -217.2507884260267, 1761.5845066788606, -1839.985899399966, -1198.1031301049516, 0.01600000075995922, -0.09600000455975533, 1.008000047877431, 0.0, 0.0, 0.0, 0.0, 0.0, 1.677029458557067E9, 0.0, 2023-02-21 19:30:58.557
18.0, -355.1913884417154, 1848.0435138545, -1641.1896473052911, -1379.6416138540953, 0.01600000075995922, -0.09600000455975533, 1.008000047877431, 0.0, 0.0, 0.0, 0.0, 0.0, 1.677029458557067E9, 0.0, 2023-02-21 19:30:58.557
19.0, -594.8927963017486, 1835.896318798419, -1461.7380277314223, -1387.448655011598, 0.01600000075995922, -0.09600000455975533, 1.008000047877431, 0.0, 0.0, 0.0, 0.0, 0.0, 1.677029458581095E9, 0.0, 2023-02-21 19:30:58.581
19.0, -497.85174220148474, 1653.7388816066086, -1368.199389939662, -1310.032725928817, 0.01600000075995922, -0.09600000455975533, 1.008000047877431, 0.0, 0.0, 0.0, 0.0, 0.0, 1.677029458581095E9, 0.0, 2023-02-21 19:30:58.581
20.0, -685.5778904273175, 1852.383667753078, -1407.8348496700637, -1385.4926873347722, 0.01600000075995922, -0.09600000455975533, 1.008000047877431, 0.0, 0.0, 0.0, 0.0, 0.0, 1.677029458605075E9, 0.0, 2023-02-21 19:30:58.605
20.0, -448.1653013401665, 2029.5258991043083, -1177.3840843504295, -1284.9623065758497, 0.01600000075995922, -0.09600000455975533, 1.008000047877431, 0.0, 0.0, 0.0, 0.0, 0.0, 1.677029458605075E9, 0.0, 2023-02-21 19:30:58.605
21.0, -688.5324113923125, 2005.4895620890893, -1383.8172121546231, -1074.439598170109, 0.01600000075995922, -0.09600000455975533, 1.008000047877431, 0.0, 0.0, 0.0, 0.0, 0.0, 1.67702945862906E9, 0.0, 2023-02-21 19:30:58.629
21.0, -489.30420085275546, 1819.8652376383543, -1396.9853998986073, -1021.2226917506196, 0.01600000075995922, -0.09600000455975533, 1.008000047877431, 0.0, 0.0, 0.0, 0.0, 0.0, 1.67702945862906E9, 0.0, 2023-02-21 19:30:58.629
22.0, -679.408925450407, 1693.692232833244, -1507.970670983661, -1126.4410371039994, 0.01600000075995922, -0.09600000455975533, 1.008000047877431, 0.0, 0.0, 0.0, 0.0, 0.0, 1.677029458653072E9, 0.0, 2023-02-21 19:30:58.653
22.0, -568.0403146198951, 1881.8821286535822, -1419.2677238346078, -1253.8276394447312, 0.01600000075995922, -0.09600000455975533, 1.008000047877431, 0.0, 0.0, 0.0, 0.0, 0.0, 1.677029458653072E9, 0.0, 2023-02-21 19:30:58.653
23.0, -686.0098488721997, 1797.8746258988976, -1385.543175984174, -1238.0845305812545, 0.01600000075995922, -0.09600000455975533, 1.008000047877431, 0.0, 0.0, 0.0, 0.0, 0.0, 1.67702945867706E9, 0.0, 2023-02-21 19:30:58.677
23.0, -826.0485327630304, 1781.6285004913807, -1223.2894863565452, -1389.3747034887783, 0.01600000075995922, -0.09600000455975533, 1.008000047877431, 0.0, 0.0, 0.0, 0.0, 0.0, 1.67702945867706E9, 0.0, 2023-02-21 19:30:58.677
24.0, -593.6829386660829, 1843.5369344078936, -1449.596442525275, -1419.5164271816611, 0.01600000075995922, -0.09600000455975533, 1.008000047877431, 0.0, 0.0, 0.0, 0.0, 0.0, 1.677029458701072E9, 0.0, 2023-02-21 19:30:58.701
24.0, -462.67237326828763, 1709.5830677449703, -1404.8859385550022, -1353.7203672612086, 0.01600000075995922, -0.09600000455975533, 1.008000047877431, 0.0, 0.0, 0.0, 0.0, 0.0, 1.677029458701072E9, 0.0, 2023-02-21 19:30:58.701
25.0, -686.8214071625844, 1803.7051299298182, -1421.0423063635826, -1397.7763887392357, 0.01600000075995922, -0.09600000455975533, 1.008000047877431, 0.0, 0.0, 0.0, 0.0, 0.0, 1.677029458725102E9, 0.0, 2023-02-21 19:30:58.725
25.0, -463.38482420984656, 1957.226153160911, -1655.3432986875996, -1258.1191746438853, 0.01600000075995922, -0.09600000455975533, 1.008000047877431, 0.0, 0.0, 0.0, 0.0, 0.0, 1.677029458725102E9, 0.0, 2023-02-21 19:30:58.725
26.0, -669.0905414726585, 2044.4107009279542, -1818.8161957007833, -1086.199713580776, 0.01600000075995922, -0.09600000455975533, 1.008000047877431, 0.0, 0.0, 0.0, 0.0, 0.0, 1.677029458749079E9, 0.0, 2023-02-21 19:30:58.749
26.0, -483.8645163672045, 2278.5658371536992, -1883.2322325375862, -1000.4456775467843, 0.01600000075995922, -0.09600000455975533, 1.008000047877431, 0.0, 0.0, 0.0, 0.0, 0.0, 1.677029458749079E9, 0.0, 2023-02-21 19:30:58.749
27.0, -700.1148815550841, 2097.420042899903, -1949.024552558083, -1069.8657005243003, 0.01600000075995922, -0.09600000455975533, 1.008000047877431, 0.0, 0.0, 0.0, 0.0, 0.0, 1.677029458773061E9, 0.0, 2023-02-21 19:30:58.773
27.0, -564.0442315172404, 1894.788523400668, -1860.4562418074347, -1230.9787206654437, 0.01600000075995922, -0.09600000455975533, 1.008000047877431, 0.0, 0.0, 0.0, 0.0, 0.0, 1.677029458773061E9, 0.0, 2023-02-21 19:30:58.773
28.0, -671.9459550888278, 1784.0182965630665, -1848.8120632953942, -1213.6760735204443, 0.01600000075995922, -0.09600000455975533, 1.008000047877431, 0.0, 0.0, 0.0, 0.0, 0.0, 1.677029458797056E9, 0.0, 2023-02-21 19:30:58.797
28.0, -845.8120340788737, 1706.9651377759874, -1690.4777888213284, -1345.4140494596213, 0.01600000075995922, -0.09600000455975533, 1.008000047877431, 0.0, 0.0, 0.0, 0.0, 0.0, 1.677029458797056E9, 0.0, 2023-02-21 19:30:58.797
29.0, -1075.5241691572592, 1833.4317247276194, -1873.6936177005991, -1383.3497246601619, 0.01600000075995922, -0.09600000455975533, 1.008000047877431, 0.0, 0.0, 0.0, 0.0, 0.0, 1.677029458821098E9, 0.0, 2023-02-21 19:30:58.821
29.0, -949.3979131015949, 1699.6386737627909, -1880.2403125730343, -1338.4297862923704, 0.01600000075995922, -0.09600000455975533, 1.008000047877431, 0.0, 0.0, 0.0, 0.0, 0.0, 1.677029458821098E9, 0.0, 2023-02-21 19:30:58.821
30.0, -1179.3026530276984, 1761.762151926756, -1920.8556260918267, -1357.4396977671422, 0.01600000075995922, -0.09600000455975533, 1.008000047877431, 0.0, 0.0, 0.0, 0.0, 0.0, 1.677029458845091E9, 0.0, 2023-02-21 19:30:58.845
30.0, -971.7494251867756, 1915.6945641529746, -2063.4168725027703, -1199.9656002828851, 0.01600000075995922, -0.09600000455975533, 1.008000047877431, 0.0, 0.0, 0.0, 0.0, 0.0, 1.677029458845091E9, 0.0, 2023-02-21 19:30:58.845
31.0, -1144.1849924437702, 2048.296456981916, -2308.299911751412, -1081.2499559894204, 0.01600000075995922, -0.0800000037997961, 1.008000047877431, 0.0, 0.0, 0.0, 0.0, 0.0, 1.677029458869085E9, 0.0, 2023-02-21 19:30:58.869
31.0, -970.1674475055188, 2266.6467759949155, -2371.751054399647, -979.934196239803, 0.01600000075995922, -0.0800000037997961, 1.008000047877431, 0.0, 0.0, 0.0, 0.0, 0.0, 1.677029458869085E9, 0.0, 2023-02-21 19:30:58.869
32.0, -1209.074126624968, 2045.7982038115151, -2409.064036257565, -1024.5399830113165, 0.01600000075995922, -0.0800000037997961, 1.008000047877431, 0.0, 0.0, 0.0, 0.0, 0.0, 1.677029458893088E9, 0.0, 2023-02-21 19:30:58.893
32.0, -1040.7692788690329, 1897.4027134696953, -2347.1873914906755, -1222.4050000170246, 0.01600000075995922, -0.0800000037997961, 1.008000047877431, 0.0, 0.0, 0.0, 0.0, 0.0, 1.677029458893088E9, 0.0, 2023-02-21 19:30:58.893
33.0, -1166.8917950247414, 1768.3294162489474, -2337.869430751074, -1206.4150577564724, 0.01600000075995922, -0.0800000037997961, 1.008000047877431, 0.0, 0.0, 0.0, 0.0, 0.0, 1.677029458917076E9, 0.0, 2023-02-21 19:30:58.917
33.0, -1340.1894092215225, 1680.2098934929818, -2187.9387114774436, -1311.5249460111372, 0.01600000075995922, -0.0800000037997961, 1.008000047877431, 0.0, 0.0, 0.0, 0.0, 0.0, 1.677029458917076E9, 0.0, 2023-02-21 19:30:58.917
34.0, -1579.4195896871388, 1813.9618055582978, -2296.898826736491, -1362.8532029530033, 0.01600000075995922, -0.0800000037997961, 1.008000047877431, 0.0, 0.0, 0.0, 0.0, 0.0, 1.677029458941076E9, 0.0, 2023-02-21 19:30:58.941
34.0, -1413.523237502668, 1710.4694240344688, -2408.439472964965, -1341.6404904043302, 0.01600000075995922, -0.0800000037997961, 1.008000047877431, 0.0, 0.0, 0.0, 0.0, 0.0, 1.677029458941076E9, 0.0, 2023-02-21 19:30:58.941
35.0, -1183.5979281268083, 1735.5566729372367, -2389.10232024407, -1356.4355346290395, 0.01600000075995922, -0.0800000037997961, 1.008000047877431, 0.0, 0.0, 0.0, 0.0, 0.0, 1.677029458965054E9, 0.0, 2023-02-21 19:30:58.965
35.0, -985.409409774933, 1885.6781271086074, -2536.5628355969675, -1171.2300789733417, 0.01600000075995922, -0.0800000037997961, 1.008000047877431, 0.0, 0.0, 0.0, 0.0, 0.0, 1.677029458965054E9, 0.0, 2023-02-21 19:30:58.965
36.0, -1128.9168508746661, 2054.0372034139, -2777.6648359904066, -1084.4606601013802, 0.01600000075995922, -0.0800000037997961, 1.008000047877431, 0.0, 0.0, 0.0, 0.0, 0.0, 1.677029458989081E9, 0.0, 2023-02-21 19:30:58.989
36.0, -970.019721457269, 2243.8670453648083, -2873.301557657309, -970.1487480057403, 0.01600000075995922, -0.0800000037997961, 1.008000047877431, 0.0, 0.0, 0.0, 0.0, 0.0, 1.677029458989081E9, 0.0, 2023-02-21 19:30:58.989
37.0, -746.5569592048414, 2012.6365109044127, -2866.9642971823923, -1002.7718953192234, 0.01600000075995922, -0.0800000037997961, 1.008000047877431, 0.0, 0.0, 0.0, 0.0, 0.0, 1.677029459013117E9, 0.0, 2023-02-21 19:30:59.013
37.0, -546.8481715209782, 1887.1890466907062, -2809.2501610661857, -1224.377797243651, 0.01600000075995922, -0.0800000037997961, 1.008000047877431, 0.0, 0.0, 0.0, 0.0, 0.0, 1.677029459013117E9, 0.0, 2023-02-21 19:30:59.013
38.0, -669.3280251198448, 1748.264852986671, -2837.262011734303, -1209.4686860702932, 0.01600000075995922, -0.0800000037997961, 1.008000047877431, 0.0, 0.0, 0.0, 0.0, 0.0, 1.677029459037084E9, 0.0, 2023-02-21 19:30:59.037
38.0, -853.7069628853351, 1647.7101628780365, -2660.370353680104, -1297.7565043242648, 0.01600000075995922, -0.0800000037997961, 1.008000047877431, 0.0, 0.0, 0.0, 0.0, 0.0, 1.677029459037084E9, 0.0, 2023-02-21 19:30:59.037
39.0, -1085.9846693333238, 1798.5496778408997, -2752.8188106347807, -1339.9145265747793, 0.01600000075995922, -0.0800000037997961, 1.008000047877431, 0.0, 0.0, 0.0, 0.0, 0.0, 1.677029459061082E9, 0.0, 2023-02-21 19:30:59.061
39.0, -922.3210374224, 1681.3243836797774, -2896.2308842856437, -1340.3128259200603, 0.01600000075995922, -0.0800000037997961, 1.008000047877431, 0.0, 0.0, 0.0, 0.0, 0.0, 1.677029459061082E9, 0.0, 2023-02-21 19:30:59.061
40.0, -694.736905418802, 1705.9104859884828, -2886.0041278568096, -1339.2039455831982, 0.01600000075995922, -0.0800000037997961, 1.008000047877431, 0.0, 0.0, 0.0, 0.0, 0.0, 1.677029459085097E9, 0.0, 2023-02-21 19:30:59.085
40.0, -508.86387762101367, 1849.0009282431565, -2976.3414112864994, -1144.622560738586, 0.01600000075995922, -0.0800000037997961, 1.008000047877431, 0.0, 0.0, 0.0, 0.0, 0.0, 1.677029459085097E9, 0.0, 2023-02-21 19:30:59.085
41.0, -643.0290486314334, 2019.8470380189829, -2783.040942176711, -1081.2050771899521, 0.01600000075995922, -0.09600000455975533, 1.008000047877431, 0.0, 0.0, 0.0, 0.0, 0.0, 1.677029459109072E9, 0.0, 2023-02-21 19:30:59.109
41.0, -479.19525127252564, 2213.8805275200866, -2876.4038046705537, -948.7845695088618, 0.01600000075995922, -0.09600000455975533, 1.008000047877431, 0.0, 0.0, 0.0, 0.0, 0.0, 1.677029459109072E9, 0.0, 2023-02-21 19:30:59.109
42.0, -258.1484643914737, 1991.5434751543216, -2830.812554260716, -980.1885094367899, 0.01600000075995922, -0.09600000455975533, 1.008000047877431, 0.0, 0.0, 0.0, 0.0, 0.0, 1.677029459133085E9, 0.0, 2023-02-21 19:30:59.133
42.0, -57.295267321169376, 1864.940381854307, -2822.5436354586855, -1208.155981185846, 0.01600000075995922, -0.09600000455975533, 1.008000047877431, 0.0, 0.0, 0.0, 0.0, 0.0, 1.677029459133085E9, 0.0, 2023-02-21 19:30:59.133
43.0, -179.2552748261951, 1721.4647299041972, -2806.314339600969, -1187.809055476915, 0.01600000075995922, -0.09600000455975533, 1.008000047877431, 0.0, 0.0, 0.0, 0.0, 0.0, 1.677029459157072E9, 0.0, 2023-02-21 19:30:59.157
43.0, -375.7814076477662, 1615.214172163047, -2682.959349412471, -1281.5346882664599, 0.01600000075995922, -0.09600000455975533, 1.008000047877431, 0.0, 0.0, 0.0, 0.0, 0.0, 1.677029459157072E9, 0.0, 2023-02-21 19:30:59.157
44.0, -605.9797297203913, 1782.2362342341803, -2698.36212737998, -1324.9006982026622, 0.01600000075995922, -0.09600000455975533, 1.008000047877431, 0.0, 0.0, 0.0, 0.0, 0.0, 1.677029459181085E9, 0.0, 2023-02-21 19:30:59.181
44.0, -435.61793698882684, 1658.267900452949, -2930.8847972750664, -1341.6685396539979, 0.01600000075995922, -0.09600000455975533, 1.008000047877431, 0.0, 0.0, 0.0, 0.0, 0.0, 1.677029459181085E9, 0.0, 2023-02-21 19:30:59.181
45.0, -195.4789608339779, 1683.2541720569134, -2880.1811036258005, -1326.1423449879512, 0.01600000075995922, -0.09600000455975533, 1.008000047877431, 0.0, 0.0, 0.0, 0.0, 0.0, 1.677029459205079E9, 0.0, 2023-02-21 19:30:59.205
45.0, -23.226648674812168, 1822.7580502540804, -2937.0201031523757, -1126.0408678087406, 0.01600000075995922, -0.09600000455975533, 1.008000047877431, 0.0, 0.0, 0.0, 0.0, 0.0, 1.677029459205079E9, 0.0, 2023-02-21 19:30:59.205
46.0, -139.64973429543898, 2008.9040907486342, -2789.4511307007633, -1072.4181822440587, 0.01600000075995922, -0.09600000455975533, 1.008000047877431, 0.0, 0.0, 0.0, 0.0, 0.0, 1.677029459229075E9, 0.0, 2023-02-21 19:30:59.229
46.0, 8.349326651077718, 2185.0421589617617, -2883.442296387162, -947.3091789763421, 0.01600000075995922, -0.09600000455975533, 1.008000047877431, 0.0, 0.0, 0.0, 0.0, 0.0, 1.677029459229075E9, 0.0, 2023-02-21 19:30:59.229
47.0, 235.40613276092336, 1960.3601893237792, -2832.9031583359465, -960.0958969248459, 0.01600000075995922, -0.09600000455975533, 1.008000047877431, 0.0, 0.0, 0.0, 0.0, 0.0, 1.677029459253086E9, 0.0, 2023-02-21 19:30:59.253
47.0, 431.77892968431115, 1853.7506011868827, -2789.224866753444, -1204.1337187835015, 0.01600000075995922, -0.09600000455975533, 1.008000047877431, 0.0, 0.0, 0.0, 0.0, 0.0, 1.677029459253086E9, 0.0, 2023-02-21 19:30:59.253
48.0, 325.1637316974811, 1706.7482235785574, -2848.4611421516165, -1190.728047392331, 0.01600000075995922, -0.09600000455975533, 1.008000047877431, 0.0, 0.0, 0.0, 0.0, 0.0, 1.677029459277105E9, 0.0, 2023-02-21 19:30:59.277
48.0, 119.05223528947681, 1599.2148801526055, -2675.735732648056, -1275.4629606883973, 0.01600000075995922, -0.09600000455975533, 1.008000047877431, 0.0, 0.0, 0.0, 0.0, 0.0, 1.677029459277105E9, 0.0, 2023-02-21 19:30:59.277
49.0, -120.72771046962589, 1768.8698317925446, -2674.0415579681285, -1311.128516615834, 0.01600000075995922, -0.09600000455975533, 1.008000047877431, 0.0, 0.0, 0.0, 0.0, 0.0, 1.677029459301101E9, 0.0, 2023-02-21 19:30:59.301
49.0, 78.47619072021917, 1652.2130024246871, -2457.183459037449, -1341.3225989080966, 0.01600000075995922, -0.09600000455975533, 1.008000047877431, 0.0, 0.0, 0.0, 0.0, 0.0, 1.677029459301101E9, 0.0, 2023-02-21 19:30:59.301
50.0, 300.3008767920546, 1673.657588770613, -2420.4707311224192, -1323.3804288706742, 0.01600000075995922, -0.09600000455975533, 1.008000047877431, 0.0, 0.0, 0.0, 0.0, 0.0, 1.677029459325097E9, 0.0, 2023-02-21 19:30:59.325
50.0, 465.88120743026957, 1812.7425981727429, -2430.0710543086752, -1121.031271818094, 0.01600000075995922, -0.09600000455975533, 1.008000047877431, 0.0, 0.0, 0.0, 0.0, 0.0, 1.677029459325097E9, 0.0, 2023-02-21 19:30:59.325
51.0, 357.1211768188514, 2002.3143870267086, -2306.695494670421, -1076.949071040377, 0.01600000075995922, -0.09600000455975533, 1.008000047877431, 0.0, 0.0, 0.0, 0.0, 0.0, 1.677029459349092E9, 0.0, 2023-02-21 19:30:59.349
51.0, 511.3770903912373, 2183.2993655824102, -2422.333201300353, -950.5834613875486, 0.01600000075995922, -0.09600000455975533, 1.008000047877431, 0.0, 0.0, 0.0, 0.0, 0.0, 1.677029459349092E9, 0.0, 2023-02-21 19:30:59.349
52.0, 736.4592293244787, 1954.694240890909, -2343.6438362826593, -968.4340038760565, 0.01600000075995922, -0.09600000455975533, 1.008000047877431, 0.0, 0.0, 0.0, 0.0, 0.0, 1.677029459373107E9, 0.0, 2023-02-21 19:30:59.373
52.0, 928.4077246002853, 1839.9877693499438, -2304.4571645469405, -1206.817097001709, 0.01600000075995922, -0.09600000455975533, 1.008000047877431, 0.0, 0.0, 0.0, 0.0, 0.0, 1.677029459373107E9, 0.0, 2023-02-21 19:30:59.373
53.0, 821.9870014111511, 1704.7959958016872, -2375.365667706821, -1189.2601366597228, 0.01600000075995922, -0.09600000455975533, 1.008000047877431, 0.0, 0.0, 0.0, 0.0, 0.0, 1.677029459397073E9, 0.0, 2023-02-21 19:30:59.397
53.0, 617.9062706790864, 1592.527939031832, -2212.607091585174, -1281.4636301673017, 0.01600000075995922, -0.09600000455975533, 1.008000047877431, 0.0, 0.0, 0.0, 0.0, 0.0, 1.677029459397073E9, 0.0, 2023-02-21 19:30:59.397
54.0, 374.3191067650914, 1752.5002896864899, -2182.9197657369077, -1299.9817447979003, 0.01600000075995922, -0.09600000455975533, 1.008000047877431, 0.0, 0.0, 0.0, 0.0, 0.0, 1.677029459421065E9, 0.0, 2023-02-21 19:30:59.421
54.0, 552.7104647015221, 1629.5716480929404, -1981.4850142234936, -1340.4904711679555, 0.01600000075995922, -0.09600000455975533, 1.008000047877431, 0.0, 0.0, 0.0, 0.0, 0.0, 1.677029459421065E9, 0.0, 2023-02-21 19:30:59.421
55.0, 308.7100418424234, 1665.059558772482, -1987.764306249097, -1328.2778278626502, 0.01600000075995922, -0.09600000455975533, 1.008000047877431, 0.0, 0.0, 0.0, 0.0, 0.0, 1.67702945944511E9, 0.0, 2023-02-21 19:30:59.445
55.0, 459.34199235774577, 1814.5190506516956, -1898.9472921513952, -1116.410625422839, 0.01600000075995922, -0.09600000455975533, 1.008000047877431, 0.0, 0.0, 0.0, 0.0, 0.0, 1.67702945944511E9, 0.0, 2023-02-21 19:30:59.445
56.0, 357.70273126196116, 1989.355633680243, -1855.6504703643732, -1072.5677782422863, 0.01600000075995922, -0.09600000455975533, 1.008000047877431, 0.0, 0.0, 0.0, 0.0, 0.0, 1.677029459469081E9, 0.0, 2023-02-21 19:30:59.469
56.0, 505.4699184112251, 2169.5589731452055, -1907.5415822495706, -947.3278784761205, 0.01600000075995922, -0.09600000455975533, 1.008000047877431, 0.0, 0.0, 0.0, 0.0, 0.0, 1.677029459469081E9, 0.0, 2023-02-21 19:30:59.469
57.0, 732.6875402191654, 1955.924667976331, -1888.372725026682, -965.365415962413, 0.01600000075995922, -0.09600000455975533, 1.008000047877431, 0.0, 0.0, 0.0, 0.0, 0.0, 1.677029459493111E9, 0.0, 2023-02-21 19:30:59.493
57.0, 912.2120878421701, 1832.7697624354623, -1767.8170499550179, -1189.2414371599443, 0.01600000075995922, -0.09600000455975533, 1.008000047877431, 0.0, 0.0, 0.0, 0.0, 0.0, 1.677029459493111E9, 0.0, 2023-02-21 19:30:59.493
58.0, 815.077536243014, 1681.6235756762326, -1896.8174191266298, -1181.430656102486, 0.01600000075995922, -0.09600000455975533, 1.008000047877431, 0.0, 0.0, 0.0, 0.0, 0.0, 1.677029459517108E9, 0.0, 2023-02-21 19:30:59.517
58.0, 618.1213149265386, 1582.1983353542164, -1701.1365036950447, -1281.0653308220208, 0.01600000075995922, -0.09600000455975533, 1.008000047877431, 0.0, 0.0, 0.0, 0.0, 0.0, 1.677029459517108E9, 0.0, 2023-02-21 19:30:59.517
59.0, 843.0893869111314, 1742.017350110691, -1645.9019212494604, -1278.626916050911, 0.01600000075995922, -0.09600000455975533, 1.008000047877431, 0.0, 0.0, 0.0, 0.0, 0.0, 1.677029459541076E9, 0.0, 2023-02-21 19:30:59.541
59.0, 1061.2807601760142, 1618.6399205224589, -1478.2945648352616, -1333.8671083464287, 0.01600000075995922, -0.09600000455975533, 1.008000047877431, 0.0, 0.0, 0.0, 0.0, 0.0, 1.677029459541076E9, 0.0, 2023-02-21 19:30:59.541
60.0, 1284.115219235886, 1655.3582582874224, -1488.5381508138962, -1329.5531337475404, 0.01600000075995922, -0.09600000455975533, 1.008000047877431, 0.0, 0.0, 0.0, 0.0, 0.0, 1.677029459565069E9, 0.0, 2023-02-21 19:30:59.565
60.0, 1429.7731028101407, 1799.1555416337214, -1378.0222371732816, -1103.5603291750886, 0.01600000075995922, -0.09600000455975533, 1.008000047877431, 0.0, 0.0, 0.0, 0.0, 0.0, 1.677029459565069E9, 0.0, 2023-02-21 19:30:59.565
61.0, 1327.9767659162171, 1973.6218745666556, -1334.6057385876775, -1057.6231380193494, 0.01600000075995922, -0.09600000455975533, 1.008000047877431, 0.0, 0.0, 0.0, 0.0, 0.0, 1.677029459589098E9, 0.0, 2023-02-21 19:30:59.589
61.0, 1485.5088318497874, 2155.6989039094187, -1439.6632682429627, -949.3287249524146, 0.01600000075995922, -0.09600000455975533, 1.008000047877431, 0.0, 0.0, 0.0, 0.0, 0.0, 1.677029459589098E9, 0.0, 2023-02-21 19:30:59.589
62.0, 1717.0871770060621, 1949.7949719489552, -1387.1793822147883, -966.6968203466386, 0.01600000075995922, -0.09600000455975533, 1.008000047877431, 0.0, 0.0, 0.0, 0.0, 0.0, 1.677029459613072E9, 0.0, 2023-02-21 19:30:59.613
62.0, 1888.2193891284987, 1815.405406941194, -1260.269617118407, -1173.963945840951, 0.01600000075995922, -0.09600000455975533, 1.008000047877431, 0.0, 0.0, 0.0, 0.0, 0.0, 1.677029459613072E9, 0.0, 2023-02-21 19:30:59.613
63.0, 1795.6849144748412, 1673.0853840773925, -1421.2685703109019, -1164.6347654014826, 0.01600000075995922, -0.09600000455975533, 1.008000047877431, 0.0, 0.0, 0.0, 0.0, 0.0, 1.677029459637114E9, 0.0, 2023-02-21 19:30:59.637
63.0, 1600.4677466377616, 1574.737234942615, -1235.352533663623, -1287.8457694416866, 0.01600000075995922, -0.09600000455975533, 1.008000047877431, 0.0, 0.0, 0.0, 0.0, 0.0, 1.677029459637114E9, 0.0, 2023-02-21 19:30:59.637
64.0, 1823.6331868437119, 1736.7179118734784, -1130.859728901647, -1262.6725028399378, 0.01600000075995922, -0.09600000455975533, 1.008000047877431, 0.0, 0.0, 0.0, 0.0, 0.0, 1.677029459661093E9, 0.0, 2023-02-21 19:30:59.661
64.0, 2031.9811434252188, 1610.0830294238403, -997.4200984826311, -1324.2967043598182, 0.01600000075995922, -0.09600000455975533, 1.008000047877431, 0.0, 0.0, 0.0, 0.0, 0.0, 1.677029459661093E9, 0.0, 2023-02-21 19:30:59.661
65.0, 2269.255356214009, 1646.9023444876075, -1043.144115340896, -1326.398528134916, 0.01600000075995922, -0.09600000455975533, 1.008000047877431, 0.0, 0.0, 0.0, 0.0, 0.0, 1.677029459685111E9, 0.0, 2023-02-21 19:30:59.685
65.0, 2412.7104387143627, 1788.3247913620435, -847.2425458119251, -1092.2826608587056, 0.01600000075995922, -0.09600000455975533, 1.008000047877431, 0.0, 0.0, 0.0, 0.0, 0.0, 1.677029459685111E9, 0.0, 2023-02-21 19:30:59.685
66.0, 2303.314625110477, 1960.5883232210763, -860.3078863071278, -1043.7312796339393, 0.01600000075995922, -0.09600000455975533, 1.008000047877431, 0.0, 0.0, 0.0, 0.0, 0.0, 1.67702945970906E9, 0.0, 2023-02-21 19:30:59.709
66.0, 2465.0428587943316, 2156.9891693941317, -935.8239462124184, -940.3211759091355, 0.01600000075995922, -0.09600000455975533, 1.008000047877431, 0.0, 0.0, 0.0, 0.0, 0.0, 1.67702945970906E9, 0.0, 2023-02-21 19:30:59.709
67.0, 2685.768014279194, 1938.2985194851644, -892.6711105736904, -962.0948734511621, 0.01600000075995922, -0.09600000455975533, 1.008000047877431, 0.0, 0.0, 0.0, 0.0, 0.0, 1.677029459733076E9, 0.0, 2023-02-21 19:30:59.733
67.0, 2862.31560153747, 1807.891947930213, -745.5920650162734, -1154.5744345206767, 0.01600000075995922, -0.09600000455975533, 1.008000047877431, 0.0, 0.0, 0.0, 0.0, 0.0, 1.677029459733076E9, 0.0, 2023-02-21 19:30:59.733
68.0, 2768.2926467014477, 1660.8559112222865, -921.6441155304201, -1168.9057311508805, 0.01600000075995922, -0.09600000455975533, 1.008000047877431, 0.0, 0.0, 0.0, 0.0, 0.0, 1.677029459757106E9, 0.0, 2023-02-21 19:30:59.757
68.0, 2585.3348709191196, 1577.8301322059706, -761.4847698779777, -1276.6148498747498, 0.01600000075995922, -0.09600000455975533, 1.008000047877431, 0.0, 0.0, 0.0, 0.0, 0.0, 1.677029459757106E9, 0.0, 2023-02-21 19:30:59.757
69.0, 2788.8246974581853, 1727.7645913795568, -587.8337351353839, -1247.967216214165, 0.01600000075995922, -0.09600000455975533, 1.008000047877431, 0.0, 0.0, 0.0, 0.0, 0.0, 1.67702945978107E9, 0.0, 2023-02-21 19:30:59.781
69.0, 3008.3474751072936, 1603.5456843012944, -521.8768595168367, -1314.157835579943, 0.01600000075995922, -0.09600000455975533, 1.008000047877431, 0.0, 0.0, 0.0, 0.0, 0.0, 1.67702945978107E9, 0.0, 2023-02-21 19:30:59.781
70.0, 3245.8236424936913, 1645.6719174021855, -546.3993835262954, -1329.6522410963662, 0.01600000075995922, -0.09600000455975533, 1.008000047877431, 0.0, 0.0, 0.0, 0.0, 0.0, 1.677029459805074E9, 0.0, 2023-02-21 19:30:59.805
70.0, 3387.936100909952, 1798.665614739526, -335.31382017722353, -1568.646807864774, 0.01600000075995922, -0.09600000455975533, 1.008000047877431, 0.0, 0.0, 0.0, 0.0, 0.0, 1.677029459805074E9, 0.0, 2023-02-21 19:30:59.805
71.0, 3282.8224727553315, 1958.5276383454911, -354.14982630405575, -1526.1166655686684, 0.01600000075995922, -0.09600000455975533, 1.008000047877431, 0.0, 0.0, 0.0, 0.0, 0.0, 1.677029459829066E9, 0.0, 2023-02-21 19:30:59.829
71.0, 3449.3676975821145, 2157.49405588815, -452.9991220328957, -1430.7884856481105, 0.01600000075995922, -0.09600000455975533, 1.008000047877431, 0.0, 0.0, 0.0, 0.0, 0.0, 1.677029459829066E9, 0.0, 2023-02-21 19:30:59.829
72.0, 3675.037000808399, 1943.201528327074, -399.44188471743837, -1453.5794359780848, 0.01600000075995922, -0.09600000455975533, 1.008000047877431, 0.0, 0.0, 0.0, 0.0, 0.0, 1.677029459853098E9, 0.0, 2023-02-21 19:30:59.853
72.0, 3839.313976312056, 1810.173286903184, -235.14059986406937, -1637.8125176453032, 0.01600000075995922, -0.09600000455975533, 1.008000047877431, 0.0, 0.0, 0.0, 0.0, 0.0, 1.677029459853098E9, 0.0, 2023-02-21 19:30:59.853
73.0, 3751.7273892997764, 1660.0854918314144, -444.98638637783006, -1662.260243655648, 0.01600000075995922, -0.09600000455975533, 1.008000047877431, 0.0, 0.0, 0.0, 0.0, 0.0, 1.677029459877098E9, 0.0, 2023-02-21 19:30:59.877
73.0, 3561.450629304163, 1584.2702399296686, -282.6990376506001, -1778.4813746786676, 0.01600000075995922, -0.09600000455975533, 1.008000047877431, 0.0, 0.0, 0.0, 0.0, 0.0, 1.677029459877098E9, 0.0, 2023-02-21 19:30:59.877
74.0, 3765.5238802363165, 1724.3874617195688, -75.50858010537922, -1737.5893085631542, 0.01600000075995922, -0.09600000455975533, 1.008000047877431, 0.0, 0.0, 0.0, 0.0, 0.0, 1.677029459901094E9, 0.0, 2023-02-21 19:30:59.901
74.0, 3998.8356690220535, 1596.4436142854393, -49.89400530885905, -1813.2044758172706, 0.01600000075995922, -0.09600000455975533, 1.008000047877431, 0.0, 0.0, 0.0, 0.0, 0.0, 1.677029459901094E9, 0.0, 2023-02-21 19:30:59.901
75.0, 4233.712605939247, 1646.1655841963366, -72.04543274641037, -1828.9344950309023, 0.01600000075995922, -0.09600000455975533, 1.008000047877431, 0.0, 0.0, 0.0, 0.0, 0.0, 1.677029459925079E9, 0.0, 2023-02-21 19:30:59.925
75.0, 4359.242347951978, 1800.2737717204727, 149.51185047859326, -2059.1814358029515, 0.01600000075995922, -0.09600000455975533, 1.008000047877431, 0.0, 0.0, 0.0, 0.0, 0.0, 1.677029459925079E9, 0.0, 2023-02-21 19:30:59.925
76.0, 4259.876946029253, 1954.3651296948083, 143.2157289031893, -2023.0951411304995, 0.01600000075995922, -0.09600000455975533, 1.008000047877431, 0.0, 0.0, 0.0, 0.0, 0.0, 1.677029459949104E9, 0.0, 2023-02-21 19:30:59.949
76.0, 4430.891351303086, 2152.3030747496523, -8.283878401853144, -1926.26726132771, 0.01600000075995922, -0.09600000455975533, 1.008000047877431, 0.0, 0.0, 0.0, 0.0, 0.0, 1.677029459949104E9, 0.0, 2023-02-21 19:30:59.949
77.0, 4653.430358266458, 1943.1304702279158, 99.54304717062041, -1953.8153644013219, 0.01600000075995922, -0.09600000455975533, 1.008000047877431, 0.0, 0.0, 0.0, 0.0, 0.0, 1.677029459973111E9, 0.0, 2023-02-21 19:30:59.973
77.0, 4819.0873568537645, 1803.0637370874174, 224.91197348525748, -2128.8183729778975, 0.01600000075995922, -0.09600000455975533, 1.008000047877431, 0.0, 0.0, 0.0, 0.0, 0.0, 1.677029459973111E9, 0.0, 2023-02-21 19:30:59.973
78.0, 4736.534675181843, 1656.4764883741736, 53.19820691971108, -2160.517765002325, 0.01600000075995922, -0.09600000455975533, 1.008000047877431, 0.0, 0.0, 0.0, 0.0, 0.0, 1.677029459997091E9, 0.0, 2023-02-21 19:30:59.997
78.0, 4551.721909021493, 1580.32090557646, 164.8884491464123, -2278.197457008064, 0.01600000075995922, -0.09600000455975533, 1.008000047877431, 0.0, 0.0, 0.0, 0.0, 0.0, 1.677029459997091E9, 0.0, 2023-02-21 19:30:59.997
79.0, 4735.038715199567, 1725.7525252033956, -32.44924196554348, -2220.4421819923446, 0.01600000075995922, -0.09600000455975533, 1.008000047877431, 0.0, 0.0, 0.0, 0.0, 0.0, 1.677029460021092E9, 0.0, 2023-02-21 19:31:00.021
79.0, 4977.019592082594, 1597.520705472678, -85.31833768915385, -2307.321927912999, 0.01600000075995922, -0.09600000455975533, 1.008000047877431, 0.0, 0.0, 0.0, 0.0, 0.0, 1.677029460021092E9, 0.0, 2023-02-21 19:31:00.021
80.0, 5219.282831412274, 1653.047000114806, -96.3435627585277, -2327.0012814798392, 0.01600000075995922, -0.09600000455975533, 1.008000047877431, 0.0, 0.0, 0.0, 0.0, 0.0, 1.677029460045091E9, 0.0, 2023-02-21 19:31:00.045
80.0, 5343.623285239097, 1794.0991968936287, -312.64815649576485, -2544.117433507461, 0.01600000075995922, -0.09600000455975533, 1.008000047877431, 0.0, 0.0, 0.0, 0.0, 0.0, 1.677029460045091E9, 0.0, 2023-02-21 19:31:00.045
81.0, 5244.968464307953, 1954.1444755974226, -358.24314680555835, -2505.1701153689064, 0.01600000075995922, -0.09600000455975533, 1.008000047877431, 0.0, 0.0, 0.0, 0.0, 0.0, 1.677029460069076E9, 0.0, 2023-02-21 19:31:00.069
81.0, 5411.165878438856, 2147.990970100742, -498.05930664902553, -2412.474825017154, 0.01600000075995922, -0.09600000455975533, 1.008000047877431, 0.0, 0.0, 0.0, 0.0, 0.0, 1.677029460069076E9, 0.0, 2023-02-21 19:31:00.069
82.0, 5630.877521035727, 1950.1801816443913, -408.35967616178095, -2443.145744553767, 0.0, -0.09600000455975533, 1.008000047877431, 0.0, 0.0, 0.0, 0.0, 0.0, 1.677029460093093E9, 0.0, 2023-02-21 19:31:00.093
82.0, 5796.968348017894, 1800.0157186235301, -236.16720240190625, -2615.781396458391, 0.0, -0.09600000455975533, 1.008000047877431, 0.0, 0.0, 0.0, 0.0, 0.0, 1.677029460093093E9, 0.0, 2023-02-21 19:31:00.093
83.0, 5714.037936450448, 1661.0466461200267, -452.78594773542136, -2647.0880989874713, 0.0, -0.09600000455975533, 1.008000047877431, 0.0, 0.0, 0.0, 0.0, 0.0, 1.677029460117142E9, 0.0, 2023-02-21 19:31:00.117
83.0, 5537.853119487874, 1589.6257766662166, -341.6940895016305, -2774.704705175478, 0.0, -0.09600000455975533, 1.008000047877431, 0.0, 0.0, 0.0, 0.0, 0.0, 1.677029460117142E9, 0.0, 2023-02-21 19:31:00.117
84.0, 5712.945885663386, 1726.6501011927612, -481.8524501910433, -2703.246436722111, 0.0, -0.09600000455975533, 1.008000047877431, 0.0, 0.0, 0.0, 0.0, 0.0, 1.677029460141086E9, 0.0, 2023-02-21 19:31:00.141
84.0, 5470.390934137162, 1600.763198734261, -593.8418844141997, -2809.6035816119984, 0.0, -0.09600000455975533, 1.008000047877431, 0.0, 0.0, 0.0, 0.0, 0.0, 1.677029460141086E9, 0.0, 2023-02-21 19:31:00.141
85.0, 5225.350819090381, 1652.22796202451, -597.420968671795, -2819.6713922927156, 0.0, -0.09600000455975533, 1.008000047877431, 0.0, 0.0, 0.0, 0.0, 0.0, 1.677029460165088E9, 0.0, 2023-02-21 19:31:00.165
85.0, 5333.310511111282, 1794.8808359843679, -776.9099872452207, -3028.6944008162245, 0.0, -0.09600000455975533, 1.008000047877431, 0.0, 0.0, 0.0, 0.0, 0.0, 1.677029460165088E9, 0.0, 2023-02-21 19:31:00.165
86.0, 5248.706494313665, 1957.469246658031, -846.0102487765253, -2994.8857052167878, 0.0, -0.09600000455975533, 1.008000047877431, 0.0, 0.0, 0.0, 0.0, 0.0, 1.677029460189084E9, 0.0, 2023-02-21 19:31:00.189
86.0, 5414.230726452544, 2143.959357948508, -996.1223531980067, -2908.5819038893096, 0.0, -0.09600000455975533, 1.008000047877431, 0.0, 0.0, 0.0, 0.0, 0.0, 1.677029460189084E9, 0.0, 2023-02-21 19:31:00.189
87.0, 5645.02743251808, 1950.400835741777, -904.8108258298598, -2937.7942624432035, 0.0, -0.09600000455975533, 1.008000047877431, 0.0, 0.0, 0.0, 0.0, 0.0, 1.677029460213077E9, 0.0, 2023-02-21 19:31:00.213
87.0, 5793.7352045062, 1806.1715939505957, -693.977705727797, -3104.3263976201415, 0.0, -0.09600000455975533, 1.008000047877431, 0.0, 0.0, 0.0, 0.0, 0.0, 1.677029460213077E9, 0.0, 2023-02-21 19:31:00.213
88.0, 5715.431049183942, 1658.050986255519, -482.98189997766167, -3144.818294440396, 0.0, -0.09600000455975533, 1.008000047877431, 0.0, 0.0, 0.0, 0.0, 0.0, 1.677029460237062E9, 0.0, 2023-02-21 19:31:00.237
88.0, 5535.689587363508, 1583.2903861412778, -321.88757933629677, -3266.1705682026222, 0.0, -0.09600000455975533, 1.008000047877431, 0.0, 0.0, 0.0, 0.0, 0.0, 1.677029460237062E9, 0.0, 2023-02-21 19:31:00.237
89.0, 5709.993234648369, 1729.24559176201, -482.10676338803023, -3182.221033897251, 0.0, -0.09600000455975533, 1.008000047877431, 0.0, 0.0, 0.0, 0.0, 0.0, 1.677029460261078E9, 0.0, 2023-02-21 19:31:00.261
89.0, 5471.0098875798285, 1598.7212133584544, -583.8451318326406, -3293.3540310305543, 0.0, -0.09600000455975533, 1.008000047877431, 0.0, 0.0, 0.0, 0.0, 0.0, 1.677029460261078E9, 0.0, 2023-02-21 19:31:00.261
90.0, 5232.690372753423, 1647.1716172844172, -636.3121883110143, -3324.821549257729, 0.0, -0.09600000455975533, 1.008000047877431, 0.0, 0.0, 0.0, 0.0, 0.0, 1.677029460285069E9, 0.0, 2023-02-21 19:31:00.285
90.0, 5333.375959360506, 1798.7179733389057, -741.4108568658121, -3518.181856766809, 0.0, -0.09600000455975533, 1.008000047877431, 0.0, 0.0, 0.0, 0.0, 0.0, 1.677029460285069E9, 0.0, 2023-02-21 19:31:00.285
91.0, 5244.71041121101, 1948.0895775691606, -867.9971206160262, -3488.438432419207, 0.0, -0.09600000455975533, 1.008000047877431, 0.0, 0.0, 0.0, 0.0, 0.0, 1.677029460309077E9, 0.0, 2023-02-21 19:31:00.309
91.0, 5417.336713365745, 2155.0519012170844, -1002.0239153280854, -3398.103018939495, 0.0, -0.09600000455975533, 1.008000047877431, 0.0, 0.0, 0.0, 0.0, 0.0, 1.677029460309077E9, 0.0, 2023-02-21 19:31:00.309
92.0, 5640.369387123268, 1951.3732097302563, -910.2860393649898, -3427.3116375934333, 0.01600000075995922, -0.09600000455975533, 1.008000047877431, 0.0, 0.0, 0.0, 0.0, 0.0, 1.677029460333079E9, 0.0, 2023-02-21 19:31:00.333
92.0, 5789.185616210103, 1802.4952722941525, -689.1607145848684, -3585.346720071044, 0.01600000075995922, -0.09600000455975533, 1.008000047877431, 0.0, 0.0, 0.0, 0.0, 0.0, 1.677029460333079E9, 0.0, 2023-02-21 19:31:00.333
93.0, 5720.306008776184, 1651.8876311285421, -491.14610158093274, -3642.933699588757, 0.01600000075995922, -0.09600000455975533, 1.008000047877431, 0.0, 0.0, 0.0, 0.0, 0.0, 1.677029460357073E9, 0.0, 2023-02-21 19:31:00.357
93.0, 5541.3349663466215, 1583.649416537024, -350.20610180078074, -3767.5247267126106, 0.01600000075995922, -0.09600000455975533, 1.008000047877431, 0.0, 0.0, 0.0, 0.0, 0.0, 1.677029460357073E9, 0.0, 2023-02-21 19:31:00.357
94.0, 5698.509871834423, 1726.2013131980784, -450.5420077620074, -3669.3860119753517, 0.01600000075995922, -0.09600000455975533, 1.008000047877431, 0.0, 0.0, 0.0, 0.0, 0.0, 1.677029460381096E9, 0.0, 2023-02-21 19:31:00.381
94.0, 5468.10211536428, 1599.4766731495038, -595.2780059971847, -3790.882271885872, 0.01600000075995922, -0.09600000455975533, 1.008000047877431, 0.0, 0.0, 0.0, 0.0, 0.0, 1.677029460381096E9, 0.0, 2023-02-21 19:31:00.381
95.0, 5230.339845631272, 1648.5292009683326, -677.0845776279457, -3817.27100597322, 0.01600000075995922, -0.09600000455975533, 1.008000047877431, 0.0, 0.0, 0.0, 0.0, 0.0, 1.677029460405159E9, 0.0, 2023-02-21 19:31:00.405
95.0, 5326.9339816868305, 1799.5856301286258, -708.5782751548104, -4001.3339221924543, 0.01600000075995922, -0.09600000455975533, 1.008000047877431, 0.0, 0.0, 0.0, 0.0, 0.0, 1.677029460405159E9, 0.0, 2023-02-21 19:31:00.405
96.0, 5245.998806745745, 1948.156895768363, -873.5994907496497, -3980.5138991391286, 0.01600000075995922, -0.09600000455975533, 1.008000047877431, 0.0, 0.0, 0.0, 0.0, 0.0, 1.677029460429081E9, 0.0, 2023-02-21 19:31:00.429
96.0, 5421.183200470172, 2149.1540789869614, -1011.2016298193485, -3891.853960839566, 0.01600000075995922, -0.09600000455975533, 1.008000047877431, 0.0, 0.0, 0.0, 0.0, 0.0, 1.677029460429081E9, 0.0, 2023-02-21 19:31:00.429
97.0, 5634.323838844895, 1940.2769265617244, -911.815658446867, -3924.140517157037, 0.01600000075995922, -0.09600000455975533, 1.008000047877431, 0.0, 0.0, 0.0, 0.0, 0.0, 1.677029460453084E9, 0.0, 2023-02-21 19:31:00.453
97.0, 5787.411033681128, 1805.8462226544507, -679.7137272967957, -4076.113221806474, 0.01600000075995922, -0.09600000455975533, 1.008000047877431, 0.0, 0.0, 0.0, 0.0, 0.0, 1.677029460453084E9, 0.0, 2023-02-21 19:31:00.453
98.0, 5717.005547065288, 1653.1778966132551, -485.73072644509375, -4134.522979314439, 0.01600000075995922, -0.09600000455975533, 1.008000047877431, 0.0, 0.0, 0.0, 0.0, 0.0, 1.677029460477078E9, 0.0, 2023-02-21 19:31:00.477
98.0, 5539.706239915919, 1582.6172041492537, -382.4515192187391, -4263.538308085874, 0.01600000075995922, -0.09600000455975533, 1.008000047877431, 0.0, 0.0, 0.0, 0.0, 0.0, 1.677029460477078E9, 0.0, 2023-02-21 19:31:00.477
99.0, 5691.376012668945, 1725.3037372087128, -388.6017846958712, -4152.912067396566, 0.01600000075995922, -0.09600000455975533, 1.008000047877431, 0.0, 0.0, 0.0, 0.0, 0.0, 1.677029460501088E9, 0.0, 2023-02-21 19:31:00.501
99.0, 5478.803839087486, 1598.062990966253, -630.4854241800494, -4284.277923290152, 0.01600000075995922, -0.09600000455975533, 1.008000047877431, 0.0, 0.0, 0.0, 0.0, 0.0, 1.677029460501088E9, 0.0, 2023-02-21 19:31:00.501
100.0, 5235.106348124798, 1645.0884930090979, -661.631311011035, -4311.07430647267, 0.01600000075995922, -0.09600000455975533, 1.008000047877431, 0.0, 0.0, 0.0, 0.0, 0.0, 1.67702946052511E9, 0.0, 2023-02-21 19:31:00.525
100.0, 5313.195459199604, 1794.0767574938945, -696.4011608990841, -4481.6324439519085, 0.01600000075995922, -0.09600000455975533, 1.008000047877431, 0.0, 0.0, 0.0, 0.0, 0.0, 1.67702946052511E9, 0.0, 2023-02-21 19:31:00.525
0.0, -638.4738504854031, -6.974913417361677, 3555.143288028892, 917.5732344286516, 0.01600000075995922, -0.09600000455975533, 1.008000047877431, 0.0, 0.0, 0.0, 0.0, 0.0, 1.677029460549073E9, 0.0, 2023-02-21 19:31:00.549
1.0, -462.84814856620505, 183.38973422721028, 3379.1286365143023, 998.8618299155496, 0.01600000075995922, -0.09600000455975533, 1.008000047877431, 0.0, 0.0, 0.0, 0.0, 0.0, 1.677029460573107E9, 0.0, 2023-02-21 19:31:00.573
1.0, -242.70641747443005, -7.434921111911535, 3521.4187401784584, 982.3015529117547, 0.01600000075995922, -0.09600000455975533, 1.008000047877431, 0.0, 0.0, 0.0, 0.0, 0.0, 1.677029460573107E9, 0.0, 2023-02-21 19:31:00.573
2.0, -98.49400523304939, -159.151442614384, 3745.60704302229, 829.4312722729519, 0.01600000075995922, -0.09600000455975533, 1.008000047877431, 0.0, 0.0, 0.0, 0.0, 0.0, 1.677029460597114E9, 0.0, 2023-02-21 19:31:00.597
2.0, -163.07272771792486, -307.21595181012526, 3912.8946379902773, 765.4976825304329, 0.01600000075995922, -0.09600000455975533, 1.008000047877431, 0.0, 0.0, 0.0, 0.0, 0.0, 1.677029460597114E9, 0.0, 2023-02-21 19:31:00.597
3.0, -337.0547436065972, -382.380461119581, 4022.1128063462675, 639.3059782255441, 0.01600000075995922, -0.09600000455975533, 1.008000047877431, 0.0, 0.0, 0.0, 0.0, 0.0, 1.67702946062107E9, 0.0, 2023-02-21 19:31:00.621
3.0, -194.95163494022563, -236.93762179277837, 4047.925595840439, 755.0334424544126, 0.01600000075995922, -0.09600000455975533, 1.008000047877431, 0.0, 0.0, 0.0, 0.0, 0.0, 1.67702946062107E9, 0.0, 2023-02-21 19:31:00.621
4.0, -406.01288893958554, -360.32627108087763, 4251.64542622678, 611.5166516047902, 0.01600000075995922, -0.09600000455975533, 1.008000047877431, 0.0, 0.0, 0.0, 0.0, 0.0, 1.677029460645093E9, 0.0, 2023-02-21 19:31:00.645
4.0, -648.1508416207507, -313.5363827352412, 4210.577584813349, 586.1376905054785, 0.01600000075995922, -0.09600000455975533, 1.008000047877431, 0.0, 0.0, 0.0, 0.0, 0.0, 1.677029460645093E9, 0.0, 2023-02-21 19:31:00.645
5.0, -571.8120037252083, -168.16086160764098, 4239.548719820101, 421.3950974573381, 0.01600000075995922, -0.09600000455975533, 1.008000047877431, 0.0, 0.0, 0.0, 0.0, 0.0, 1.677029460669122E9, 0.0, 2023-02-21 19:31:00.669
5.0, -632.9556281007826, -4.603816845454276, 4030.6509979451075, 420.7275253152475, 0.01600000075995922, -0.09600000455975533, 1.008000047877431, 0.0, 0.0, 0.0, 0.0, 0.0, 1.677029460669122E9, 0.0, 2023-02-21 19:31:00.669
6.0, -459.8954975511879, 183.7525045229122, 3854.827081328258, 504.6639699707739, 0.01600000075995922, -0.09600000455975533, 1.008000047877431, 0.0, 0.0, 0.0, 0.0, 0.0, 1.677029460693162E9, 0.0, 2023-02-21 19:31:00.693
6.0, -245.86850288696587, -17.016544798389077, 4007.8319983654656, 496.83635936351493, 0.01600000075995922, -0.09600000455975533, 1.008000047877431, 0.0, 0.0, 0.0, 0.0, 0.0, 1.677029460693162E9, 0.0, 2023-02-21 19:31:00.693
7.0, -100.72111565666273, -160.38560959976166, 4252.058685171884, 338.73395868670195, 0.01600000075995922, -0.09600000455975533, 1.008000047877431, 0.0, 0.0, 0.0, 0.0, 0.0, 1.677029460717128E9, 0.0, 2023-02-21 19:31:00.717
7.0, -155.50504015758634, -302.2755439686589, 4382.160454880446, 267.1597533347085, 0.01600000075995922, -0.09600000455975533, 1.008000047877431, 0.0, 0.0, 0.0, 0.0, 0.0, 1.677029460717128E9, 0.0, 2023-02-21 19:31:00.717
8.0, -343.1788297840394, -388.0838085520081, 4514.053636667784, 141.87310481909662, 0.01600000075995922, -0.09600000455975533, 1.008000047877431, 0.0, 0.0, 0.0, 0.0, 0.0, 1.677029460741094E9, 0.0, 2023-02-21 19:31:00.741
8.0, -195.15171958785504, -235.1536895139143, 4549.406910948921, 276.2140511274338, 0.01600000075995922, -0.09600000455975533, 1.008000047877431, 0.0, 0.0, 0.0, 0.0, 0.0, 1.677029460741094E9, 0.0, 2023-02-21 19:31:00.741
9.0, -400.28149225749075, -359.3838162920438, 4746.671674011741, 120.12371662678197, 0.01600000075995922, -0.09600000455975533, 1.008000047877431, 0.0, 0.0, 0.0, 0.0, 0.0, 1.677029460765102E9, 0.0, 2023-02-21 19:31:00.765
9.0, -644.5437081134878, -315.6793454098515, 4665.040877678897, 86.38981902645901, 0.01600000075995922, -0.09600000455975533, 1.008000047877431, 0.0, 0.0, 0.0, 0.0, 0.0, 1.677029460765102E9, 0.0, 2023-02-21 19:31:00.765
10.0, -581.1972826640122, -171.95686006266624, 4780.613136059605, -62.13282791385427, 0.01600000075995922, -0.09600000455975533, 1.008000047877431, 0.0, 0.0, 0.0, 0.0, 0.0, 1.67702946078908E9, 0.0, 2023-02-21 19:31:00.789
10.0, -640.8486869572662, -4.854390142485499, 4988.7797074932605, -68.85155818425119, 0.01600000075995922, -0.09600000455975533, 1.008000047877431, 0.0, 0.0, 0.0, 0.0, 0.0, 1.67702946078908E9, 0.0, 2023-02-21 19:31:00.789
11.0, -459.5607765051536, 184.54910321347415, 4830.286487271078, 18.858445526566356, 0.01600000075995922, -0.09600000455975533, 1.008000047877431, 0.0, 0.0, 0.0, 0.0, 0.0, 1.677029460813094E9, 0.0, 2023-02-21 19:31:00.813
11.0, -249.0605074991472, -21.167833749204874, 4996.930819446687, 11.285148116294295, 0.01600000075995922, -0.09600000455975533, 1.008000047877431, 0.0, 0.0, 0.0, 0.0, 0.0, 1.677029460813094E9, 0.0, 2023-02-21 19:31:00.813
12.0, -98.27709103561938, -148.65728333871812, 5234.306009534281, -144.1806230917573, 0.0, -0.09600000455975533, 1.008000047877431, 0.0, 0.0, 0.0, 0.0, 0.0, 1.677029460837082E9, 0.0, 2023-02-21 19:31:00.837
12.0, -155.30495550995693, -304.07069594739005, 5347.742785040289, -223.79935324843973, 0.0, -0.09600000455975533, 1.008000047877431, 0.0, 0.0, 0.0, 0.0, 0.0, 1.677029460837082E9, 0.0, 2023-02-21 19:31:00.837
13.0, -339.1939663812518, -390.2417308264412, 5477.40324655408, -350.70911834482104, 0.0, -0.09600000455975533, 1.008000047877431, 0.0, 0.0, 0.0, 0.0, 0.0, 1.677029460861094E9, 0.0, 2023-02-21 19:31:00.861
13.0, -198.82243139436468, -239.90710235759616, 5560.58236146858, -208.51438212953508, 0.0, -0.09600000455975533, 1.008000047877431, 0.0, 0.0, 0.0, 0.0, 0.0, 1.677029460861094E9, 0.0, 2023-02-21 19:31:00.861
14.0, -394.66977237397805, -360.8124580751173, 5690.012819135096, -379.32496285578236, 0.0, -0.09600000455975533, 1.008000047877431, 0.0, 0.0, 0.0, 0.0, 0.0, 1.67702946088512E9, 0.0, 2023-02-21 19:31:00.885
14.0, -635.9999066647142, -318.6899648741819, 5627.096482180525, -407.04884122731164, 0.0, -0.09600000455975533, 1.008000047877431, 0.0, 0.0, 0.0, 0.0, 0.0, 1.67702946088512E9, 0.0, 2023-02-21 19:31:00.885
15.0, -575.8136966777965, -176.44847990944982, 5776.705570057966, -537.3768748831935, 0.0, -0.09600000455975533, 1.008000047877431, 0.0, 0.0, 0.0, 0.0, 0.0, 1.677029460909114E9, 0.0, 2023-02-21 19:31:00.909
15.0, -631.6279636165127, 0.17577529791742563, 5953.595358162187, -562.3537967372686, 0.0, -0.09600000455975533, 1.008000047877431, 0.0, 0.0, 0.0, 0.0, 0.0, 1.677029460909114E9, 0.0, 2023-02-21 19:31:00.909
16.0, -454.00889502093196, 183.0120043316856, 5796.429802424274, -478.92971837567165, 0.0, -0.09600000455975533, 1.008000047877431, 0.0, 0.0, 0.0, 0.0, 0.0, 1.677029460933091E9, 0.0, 2023-02-21 19:31:00.933
16.0, -251.01834512595087, -28.875767557881773, 5974.204076868016, -485.7325963950716, 0.0, -0.09600000455975533, 1.008000047877431, 0.0, 0.0, 0.0, 0.0, 0.0, 1.677029460933091E9, 0.0, 2023-02-21 19:31:00.933
17.0, -102.03756044106558, -154.99267386365682, 5739.508525098674, -634.5563052818179, 0.0, -0.09600000455975533, 1.008000047877431, 0.0, 0.0, 0.0, 0.0, 0.0, 1.6770294609571E9, 0.0, 2023-02-21 19:31:00.957
17.0, -156.08098475076258, -311.70383175695315, 5828.94636258902, -714.4630077350885, 0.0, -0.09600000455975533, 1.008000047877431, 0.0, 0.0, 0.0, 0.0, 0.0, 1.6770294609571E9, 0.0, 2023-02-21 19:31:00.957
18.0, -336.8023003595881, -399.4269251176156, 5974.359282716177, -838.7211837628856, 0.0, -0.09600000455975533, 1.008000047877431, 0.0, 0.0, 0.0, 0.0, 0.0, 1.67702946098109E9, 0.0, 2023-02-21 19:31:00.981
18.0, -210.45165030658245, -247.1961673712358, 6090.16154494416, -689.1625845348462, 0.0, -0.09600000455975533, 1.008000047877431, 0.0, 0.0, 0.0, 0.0, 0.0, 1.67702946098109E9, 0.0, 2023-02-21 19:31:00.981
19.0, -398.6770751764998, -363.62486284179613, 6171.564207379706, -862.9052468263544, 0.0, -0.09600000455975533, 1.008000047877431, 0.0, 0.0, 0.0, 0.0, 0.0, 1.677029461005106E9, 0.0, 2023-02-21 19:31:01.005
19.0, -642.4867631378584, -336.60408566193655, 6124.542445236817, -890.468309499789, 0.0, -0.09600000455975533, 1.008000047877431, 0.0, 0.0, 0.0, 0.0, 0.0, 1.677029461005106E9, 0.0, 2023-02-21 19:31:01.005
20.0, -590.9060629489832, -189.0893417596817, 6304.444722755346, -1016.0466702119447, 0.0, -0.09600000455975533, 1.008000047877431, 0.0, 0.0, 0.0, 0.0, 0.0, 1.677029461029114E9, 0.0, 2023-02-21 19:31:01.029
20.0, -634.9882637267001, -7.850050006993115, 6465.641890645493, -1043.832256932743, 0.0, -0.09600000455975533, 1.008000047877431, 0.0, 0.0, 0.0, 0.0, 0.0, 1.677029461029114E9, 0.0, 2023-02-21 19:31:01.029
21.0, -458.25181152066216, 166.69856072496623, 6278.310301864985, -961.3581131598912, 0.0, -0.09600000455975533, 1.008000047877431, 0.0, 0.0, 0.0, 0.0, 0.0, 1.677029461053114E9, 0.0, 2023-02-21 19:31:01.053
21.0, -254.30758713698015, -50.858899497427046, 6491.546307688579, -957.0852774605155, 0.0, -0.09600000455975533, 1.008000047877431, 0.0, 0.0, 0.0, 0.0, 0.0, 1.677029461053114E9, 0.0, 2023-02-21 19:31:01.053
22.0, -112.5709886662662, -162.60337027348578, 6735.2718479009345, -1110.0116565986536, 0.01600000075995922, -0.09600000455975533, 1.008000047877431, 0.0, 0.0, 0.0, 0.0, 0.0, 1.677029461077119E9, 0.0, 2023-02-21 19:31:01.077
22.0, -150.24861076986417, -320.4028390538879, 6819.900174048264, -1192.139859625604, 0.01600000075995922, -0.09600000455975533, 1.008000047877431, 0.0, 0.0, 0.0, 0.0, 0.0, 1.677029461077119E9, 0.0, 2023-02-21 19:31:01.077
23.0, -337.1706805052236, -426.0288335024379, 6935.55097032804, -1317.0824373452924, 0.01600000075995922, -0.09600000455975533, 1.008000047877431, 0.0, 0.0, 0.0, 0.0, 0.0, 1.677029461101102E9, 0.0, 2023-02-21 19:31:01.101
23.0, -219.1637472533621, -249.54482454340905, 7108.4989038789645, -1156.5883706468157, 0.01600000075995922, -0.09600000455975533, 1.008000047877431, 0.0, 0.0, 0.0, 0.0, 0.0, 1.677029461101102E9, 0.0, 2023-02-21 19:31:01.101
24.0, -394.2471636789851, -369.4478870728053, 7145.520173540339, -1352.8751498712227, 0.01600000075995922, -0.09600000455975533, 1.008000047877431, 0.0, 0.0, 0.0, 0.0, 0.0, 1.677029461125124E9, 0.0, 2023-02-21 19:31:01.125
24.0, -638.1840082388371, -346.3016462470405, 7084.660781561397, -1385.2140647880733, 0.01600000075995922, -0.09600000455975533, 1.008000047877431, 0.0, 0.0, 0.0, 0.0, 0.0, 1.677029461125124E9, 0.0, 2023-02-21 19:31:01.125
25.0, -600.2352433884516, -205.0998534699902, 7305.582281793933, -1497.0632527628914, 0.01600000075995922, -0.09600000455975533, 1.008000047877431, 0.0, 0.0, 0.0, 0.0, 0.0, 1.677029461149116E9, 0.0, 2023-02-21 19:31:01.149
25.0, -639.0030463291332, -2.688988068141043, 7449.860142284539, -1524.4673696882091, 0.01600000075995922, -0.09600000455975533, 1.008000047877431, 0.0, 0.0, 0.0, 0.0, 0.0, 1.677029461149116E9, 0.0, 2023-02-21 19:31:01.149
26.0, -458.05920667294413, 165.64390893746167, 7253.814586607274, -1441.5182586209849, 0.01600000075995922, -0.09600000455975533, 1.008000047877431, 0.0, 0.0, 0.0, 0.0, 0.0, 1.677029461173141E9, 0.0, 2023-02-21 19:31:01.173
26.0, -254.0476640900597, -70.51207376457751, 7480.61894947011, -1443.5639838967472, 0.01600000075995922, -0.09600000455975533, 1.008000047877431, 0.0, 0.0, 0.0, 0.0, 0.0, 1.677029461173141E9, 0.0, 2023-02-21 19:31:01.173
27.0, -112.06423222227022, -156.2941590482369, 7243.256849032361, -1590.2671695086174, 0.01600000075995922, -0.09600000455975533, 1.008000047877431, 0.0, 0.0, 0.0, 0.0, 0.0, 1.677029461197114E9, 0.0, 2023-02-21 19:31:01.197
27.0, -159.23746031336486, -316.34130770200863, 7315.057318331674, -1679.9013517466374, 0.01600000075995922, -0.09600000455975533, 1.008000047877431, 0.0, 0.0, 0.0, 0.0, 0.0, 1.677029461197114E9, 0.0, 2023-02-21 19:31:01.197
28.0, -339.1023388323374, -424.9704418149777, 7420.408430133481, -1798.8563496372662, 0.01600000075995922, -0.09600000455975533, 1.008000047877431, 0.0, 0.0, 0.0, 0.0, 0.0, 1.677029461221137E9, 0.0, 2023-02-21 19:31:01.221
28.0, -227.0717657096684, -255.29305077530444, 7651.8521388913505, -1630.0821444368921, 0.01600000075995922, -0.09600000455975533, 1.008000047877431, 0.0, 0.0, 0.0, 0.0, 0.0, 1.677029461221137E9, 0.0, 2023-02-21 19:31:01.221
29.0, -398.5125195784494, -360.1467558830045, 7630.58519779332, -1832.2966650910676, 0.01600000075995922, -0.09600000455975533, 1.008000047877431, 0.0, 0.0, 0.0, 0.0, 0.0, 1.677029461245123E9, 0.0, 2023-02-21 19:31:01.245
29.0, -639.7603760701604, -349.5553592084907, 7578.757664207369, -1867.3694468755275, 0.01600000075995922, -0.09600000455975533, 1.008000047877431, 0.0, 0.0, 0.0, 0.0, 0.0, 1.677029461245123E9, 0.0, 2023-02-21 19:31:01.245
30.0, -605.1625615800731, -208.25258913263679, 7348.607960834168, -1967.9278768841177, 0.01600000075995922, -0.09600000455975533, 1.008000047877431, 0.0, 0.0, 0.0, 0.0, 0.0, 1.677029461269115E9, 0.0, 2023-02-21 19:31:01.269
30.0, -642.4231848386116, 9.955613682046533, 7466.00716034323, -2004.4610896012746, 0.01600000075995922, -0.09600000455975533, 1.008000047877431, 0.0, 0.0, 0.0, 0.0, 0.0, 1.677029461269115E9, 0.0, 2023-02-21 19:31:01.269
31.0, -455.9330735481344, 178.80461688153446, 7260.604374976829, -1933.176726495847, 0.01600000075995922, -0.09600000455975533, 1.008000047877431, 0.0, 0.0, 0.0, 0.0, 0.0, 1.67702946129313E9, 0.0, 2023-02-21 19:31:01.293
31.0, -255.19020352652296, -62.00006146542728, 7503.437949049752, -1928.3877846025862, 0.01600000075995922, -0.09600000455975533, 1.008000047877431, 0.0, 0.0, 0.0, 0.0, 0.0, 1.67702946129313E9, 0.0, 2023-02-21 19:31:01.293
32.0, -125.67559811100364, -132.90108482539654, 7280.3734861426055, -2059.1552565032616, 0.01600000075995922, -0.09600000455975533, 1.008000047877431, 0.0, 0.0, 0.0, 0.0, 0.0, 1.677029461317105E9, 0.0, 2023-02-21 19:31:01.317
32.0, -154.35876082116738, -291.69162709405646, 7322.5614275927655, -2174.991177830845, 0.01600000075995922, -0.09600000455975533, 1.008000047877431, 0.0, 0.0, 0.0, 0.0, 0.0, 1.677029461317105E9, 0.0, 2023-02-21 19:31:01.317
33.0, -328.8157440042123, -403.34634027117863, 7439.214517060667, -2301.9981803260744, 0.01600000075995922, -0.09600000455975533, 1.008000047877431, 0.0, 0.0, 0.0, 0.0, 0.0, 1.677029461341138E9, 0.0, 2023-02-21 19:31:01.341
33.0, -229.1604998349212, -219.13195810373873, 7200.992239633109, -2106.270516145043, 0.01600000075995922, -0.09600000455975533, 1.008000047877431, 0.0, 0.0, 0.0, 0.0, 0.0, 1.677029461341138E9, 0.0, 2023-02-21 19:31:01.341
34.0, -390.6419001217, -318.3832930778153, 7164.040158120915, -2319.3606658703648, 0.01600000075995922, -0.09600000455975533, 1.008000047877431, 0.0, 0.0, 0.0, 0.0, 0.0, 1.677029461365107E9, 0.0, 2023-02-21 19:31:01.365
34.0, -622.0874788295478, -298.21401261677966, 7085.775271748193, -2360.050777388271, 0.01600000075995922, -0.09600000455975533, 1.008000047877431, 0.0, 0.0, 0.0, 0.0, 0.0, 1.677029461365107E9, 0.0, 2023-02-21 19:31:01.365
35.0, -600.1043468900025, -160.09763730317354, 6930.4721861882135, -2448.0169642460532, 0.01600000075995922, -0.09600000455975533, 1.008000047877431, 0.0, 0.0, 0.0, 0.0, 0.0, 1.67702946138913E9, 0.0, 2023-02-21 19:31:01.389
35.0, -634.144916286692, 68.03625999391079, 6989.914156083949, -2482.998118481599, 0.01600000075995922, -0.09600000455975533, 1.008000047877431, 0.0, 0.0, 0.0, 0.0, 0.0, 1.67702946138913E9, 0.0, 2023-02-21 19:31:01.389
36.0, -443.07342755049467, 243.1907345186919, 6804.807807777077, -2407.390431027394, 0.01600000075995922, -0.09600000455975533, 1.008000047877431, 0.0, 0.0, 0.0, 0.0, 0.0, 1.677029461413138E9, 0.0, 2023-02-21 19:31:01.413
36.0, -238.67667527217418, 26.871181181631982, 7047.0168185574, -2421.9498615548946, 0.01600000075995922, -0.09600000455975533, 1.008000047877431, 0.0, 0.0, 0.0, 0.0, 0.0, 1.677029461413138E9, 0.0, 2023-02-21 19:31:01.413
37.0, -113.2572603081353, -74.82417841348797, 6836.952247896232, -2534.72093486879, 0.01600000075995922, -0.09600000455975533, 1.008000047877431, 0.0, 0.0, 0.0, 0.0, 0.0, 1.677029461437114E9, 0.0, 2023-02-21 19:31:01.437
37.0, -136.22585588600487, -217.48079227330163, 6859.958242473658, -2657.442012014799, 0.01600000075995922, -0.09600000455975533, 1.008000047877431, 0.0, 0.0, 0.0, 0.0, 0.0, 1.677029461437114E9, 0.0, 2023-02-21 19:31:01.437
38.0, -298.92085370840505, -292.794897580985, 6962.766222305596, -2799.6292684301734, 0.01600000075995922, -0.09600000455975533, 1.008000047877431, 0.0, 0.0, 0.0, 0.0, 0.0, 1.677029461461115E9, 0.0, 2023-02-21 19:31:01.461
38.0, -221.9929815698415, -131.89879163727164, 6765.439750893507, -2588.1977643352, 0.01600000075995922, -0.09600000455975533, 1.008000047877431, 0.0, 0.0, 0.0, 0.0, 0.0, 1.677029461461115E9, 0.0, 2023-02-21 19:31:01.461
39.0, -368.30908753629774, -243.67131166299805, 6655.982228940353, -2812.3280987297185, 0.01600000075995922, -0.09600000455975533, 1.008000047877431, 0.0, 0.0, 0.0, 0.0, 0.0, 1.677029461485168E9, 0.0, 2023-02-21 19:31:01.485
39.0, -584.1854627286084, -174.93195047741756, 6593.241667283699, -2876.11209247401, 0.01600000075995922, -0.09600000455975533, 1.008000047877431, 0.0, 0.0, 0.0, 0.0, 0.0, 1.677029461485168E9, 0.0, 2023-02-21 19:31:01.485
40.0, -574.5365208429284, -36.048895672895014, 6463.246484723873, -2943.5724078747444, 0.01600000075995922, -0.09600000455975533, 1.008000047877431, 0.0, 0.0, 0.0, 0.0, 0.0, 1.677029461509096E9, 0.0, 2023-02-21 19:31:01.509
40.0, -621.3862475878559, 92.13617530837655, 6488.285114927217, -2969.4431658182293, 0.01600000075995922, -0.09600000455975533, 1.008000047877431, 0.0, 0.0, 0.0, 0.0, 0.0, 1.677029461509096E9, 0.0, 2023-02-21 19:31:01.509
41.0, -426.64965689508244, 314.4021695749834, 6292.65842804499, -2914.4198877201416, 0.01600000075995922, -0.09600000455975533, 1.008000047877431, 0.0, 0.0, 0.0, 0.0, 0.0, 1.677029461533115E9, 0.0, 2023-02-21 19:31:01.533
41.0, -206.1526353075169, 169.70170038938522, 6075.03738952335, -2944.709337461274, 0.01600000075995922, -0.09600000455975533, 1.008000047877431, 0.0, 0.0, 0.0, 0.0, 0.0, 1.677029461533115E9, 0.0, 2023-02-21 19:31:01.533
42.0, -115.76860312838107, 402.1458323854022, 5836.979667693842, -2992.2266363482922, 0.0, -0.09600000455975533, 1.008000047877431, 0.0, 0.0, 0.0, 0.0, 0.0, 1.677029461557115E9, 0.0, 2023-02-21 19:31:01.557
42.0, -126.51894555101171, 305.6208844790235, 5841.701291387901, -3143.53924865555, 0.0, -0.09600000455975533, 1.008000047877431, 0.0, 0.0, 0.0, 0.0, 0.0, 1.677029461557115E9, 0.0, 2023-02-21 19:31:01.557
43.0, -285.1262327218428, 335.2633315278217, 5980.636704791803, -3326.633530786261, 0.0, -0.09600000455975533, 1.008000047877431, 0.0, 0.0, 0.0, 0.0, 0.0, 1.677029461581109E9, 0.0, 2023-02-21 19:31:01.581
43.0, -232.0551824006252, 350.28463969985023, 5781.675897099078, -3543.39626226807, 0.0, -0.09600000455975533, 1.008000047877431, 0.0, 0.0, 0.0, 0.0, 0.0, 1.677029461581109E9, 0.0, 2023-02-21 19:31:01.581
44.0, -391.07572851656005, 203.73852988611907, 5655.01483534975, -3766.943172269501, 0.0, -0.09600000455975533, 1.008000047877431, 0.0, 0.0, 0.0, 0.0, 0.0, 1.677029461605112E9, 0.0, 2023-02-21 19:31:01.605
44.0, -599.1020537018776, 378.50031491555274, 5595.883277150337, -3865.063187506981, 0.0, -0.09600000455975533, 1.008000047877431, 0.0, 0.0, 0.0, 0.0, 0.0, 1.677029461605112E9, 0.0, 2023-02-21 19:31:01.605
45.0, -592.2168978834525, 521.1344893756323, 5533.875735884998, -3929.445565244183, 0.0, -0.09600000455975533, 1.008000047877431, 0.0, 0.0, 0.0, 0.0, 0.0, 1.677029461629086E9, 0.0, 2023-02-21 19:31:01.629
45.0, -662.9645853452384, 451.3816153020598, 5458.133412032388, -3890.3748304070905, 0.0, -0.09600000455975533, 1.008000047877431, 0.0, 0.0, 0.0, 0.0, 0.0, 1.677029461629086E9, 0.0, 2023-02-21 19:31:01.629
46.0, -460.38916434533894, 295.4371368996799, 5321.694381848909, -3875.2600247361697, 0.0, -0.09600000455975533, 1.008000047877431, 0.0, 0.0, 0.0, 0.0, 0.0, 1.677029461653089E9, 0.0, 2023-02-21 19:31:01.653
46.0, -243.13463601935655, 278.70482449792325, 5144.022954653949, -3936.3101516128518, 0.0, -0.09600000455975533, 1.008000047877431, 0.0, 0.0, 0.0, 0.0, 0.0, 1.677029461653089E9, 0.0, 2023-02-21 19:31:01.653
47.0, -170.00276233581826, 231.45866835769266, 5311.970641964115, -3927.095038122032, 0.0, -0.09600000455975533, 1.008000047877431, 0.0, 0.0, 0.0, 0.0, 0.0, 1.677029461677104E9, 0.0, 2023-02-21 19:31:01.677
47.0, -185.18488620594144, 203.80771803529933, 5334.269795449916, -4095.869243322406, 0.0, -0.09600000455975533, 1.008000047877431, 0.0, 0.0, 0.0, 0.0, 0.0, 1.677029461677104E9, 0.0, 2023-02-21 19:31:01.677
48.0, -333.1334585030563, 386.03434337629005, 5561.612703906372, -4320.626010959502, 0.0, -0.09600000455975533, 1.008000047877431, 0.0, 0.0, 0.0, 0.0, 0.0, 1.677029461701109E9, 0.0, 2023-02-21 19:31:01.701
48.0, -292.22456283774227, 215.4874255969189, 5790.962068689056, -4481.712851800956, 0.0, -0.09600000455975533, 1.008000047877431, 0.0, 0.0, 0.0, 0.0, 0.0, 1.677029461701109E9, 0.0, 2023-02-21 19:31:01.701
49.0, -446.89186540525407, -15.464486316777766, 5602.7235541692935, -4707.649557874072, 0.0, -0.09600000455975533, 1.008000047877431, 0.0, 0.0, 0.0, 0.0, 0.0, 1.677029461725108E9, 0.0, 2023-02-21 19:31:01.725
49.0, -650.692103640642, -165.6943975868635, 5668.2970900423825, -4833.055883188266, 0.0, -0.09600000455975533, 1.008000047877431, 0.0, 0.0, 0.0, 0.0, 0.0, 1.677029461725108E9, 0.0, 2023-02-21 19:31:01.725
50.0, -641.8472402454354, 25.113428202457726, 5630.875651085749, -4897.542978124227, 0.0, -0.09600000455975533, 1.008000047877431, 0.0, 0.0, 0.0, 0.0, 0.0, 1.677029461749094E9, 0.0, 2023-02-21 19:31:01.749
50.0, -684.9907261342742, 218.05673686647788, 5830.01410402637, -4841.609034386929, 0.0, -0.09600000455975533, 1.008000047877431, 0.0, 0.0, 0.0, 0.0, 0.0, 1.677029461749094E9, 0.0, 2023-02-21 19:31:01.749
51.0, -483.94118431629613, 240.51483610039577, 5815.368655799888, -4876.180669577327, 0.0, -0.09600000455975533, 1.008000047877431, 0.0, 0.0, 0.0, 0.0, 0.0, 1.677029461773083E9, 0.0, 2023-02-21 19:31:01.773
51.0, -241.37875299016014, 8.598029998131096, 5777.225416151807, -4991.294790213462, 0.0, -0.09600000455975533, 1.008000047877431, 0.0, 0.0, 0.0, 0.0, 0.0, 1.677029461773083E9, 0.0, 2023-02-21 19:31:01.773
52.0, -143.52988049946725, 150.92179276188836, 5628.6896795616485, -4924.234644107986, 0.0, -0.09600000455975533, 1.008000047877431, 0.0, 0.0, 0.0, 0.0, 0.0, 1.677029461797108E9, 0.0, 2023-02-21 19:31:01.797
52.0, -149.50437067868188, 247.48974951775745, 5745.974812122062, -5129.94784117071, 0.0, -0.09600000455975533, 1.008000047877431, 0.0, 0.0, 0.0, 0.0, 0.0, 1.677029461797108E9, 0.0, 2023-02-21 19:31:01.797
53.0, -287.6469252919778, 262.56902613909915, 5633.759113951586, -4966.5759214563295, 0.0, -0.09600000455975533, 1.008000047877431, 0.0, 0.0, 0.0, 0.0, 0.0, 1.677029461821085E9, 0.0, 2023-02-21 19:31:01.821
53.0, -216.42988038575277, 393.1495030419901, 5645.906309007667, -5089.029595755506, 0.0, -0.09600000455975533, 1.008000047877431, 0.0, 0.0, 0.0, 0.0, 0.0, 1.677029461821085E9, 0.0, 2023-02-21 19:31:01.821
54.0, -374.24617871595547, 542.4463092731312, 5405.08854101086, -5290.567194517702, 0.0, -0.09600000455975533, 1.008000047877431, 0.0, 0.0, 0.0, 0.0, 0.0, 1.677029461845111E9, 0.0, 2023-02-21 19:31:01.845
54.0, -578.9028540411964, 665.1299874195829, 5606.255889677443, -5515.406239953823, 0.0, -0.09600000455975533, 1.008000047877431, 0.0, 0.0, 0.0, 0.0, 0.0, 1.677029461845111E9, 0.0, 2023-02-21 19:31:01.845
55.0, -551.7250010631979, 445.11167302634567, 5548.575412660837, -5595.600914703682, 0.0, -0.09600000455975533, 1.008000047877431, 0.0, 0.0, 0.0, 0.0, 0.0, 1.677029461869137E9, 0.0, 2023-02-21 19:31:01.869
55.0, -611.3464861568063, 626.2107185306959, 5569.167301816866, -5394.652350184508, 0.0, -0.09600000455975533, 1.008000047877431, 0.0, 0.0, 0.0, 0.0, 0.0, 1.677029461869137E9, 0.0, 2023-02-21 19:31:01.869
56.0, -408.31853726226836, 850.5560971726663, 5664.1514109415, -5498.34107645601, 0.0, -0.09600000455975533, 1.008000047877431, 0.0, 0.0, 0.0, 0.0, 0.0, 1.677029461893123E9, 0.0, 2023-02-21 19:31:01.893
56.0, -183.1578604299575, 886.2422225498594, 5781.200929804705, -5692.385785656981, 0.0, -0.09600000455975533, 1.008000047877431, 0.0, 0.0, 0.0, 0.0, 0.0, 1.677029461893123E9, 0.0, 2023-02-21 19:31:01.893
57.0, -107.52025377610698, 880.2060240213759, 5935.041714482009, -5879.22183769336, 0.0, -0.09600000455975533, 1.008000047877431, 0.0, 0.0, 0.0, 0.0, 0.0, 1.677029461917092E9, 0.0, 2023-02-21 19:31:01.917
57.0, -143.84029219578952, 1021.9482323420234, 6164.101237018127, -6091.042291383725, 0.0, -0.09600000455975533, 1.008000047877431, 0.0, 0.0, 0.0, 0.0, 0.0, 1.677029461917092E9, 0.0, 2023-02-21 19:31:01.917
58.0, -283.17587489495054, 848.9236308420077, 6210.212333521806, -6001.17810529843, 0.0, -0.09600000455975533, 1.008000047877431, 0.0, 0.0, 0.0, 0.0, 0.0, 1.677029461941155E9, 0.0, 2023-02-21 19:31:01.941
58.0, -222.288433666341, 664.8046161234379, 6110.744084350299, -6000.905092601664, 0.0, -0.09600000455975533, 1.008000047877431, 0.0, 0.0, 0.0, 0.0, 0.0, 1.677029461941155E9, 0.0, 2023-02-21 19:31:01.941
59.0, -391.50020716153085, 650.6453548911959, 6331.342083236668, -6154.7365275290795, 0.0, -0.09600000455975533, 1.008000047877431, 0.0, 0.0, 0.0, 0.0, 0.0, 1.677029461965096E9, 0.0, 2023-02-21 19:31:01.965
59.0, -610.8621691125445, 540.1556205502711, 6184.22937857965, -5961.991433562711, 0.0, -0.09600000455975533, 1.008000047877431, 0.0, 0.0, 0.0, 0.0, 0.0, 1.677029461965096E9, 0.0, 2023-02-21 19:31:01.965
60.0, -582.6147047472186, 415.97598242154345, 6191.00607729936, -6045.997066367418, 0.0, -0.09600000455975533, 1.008000047877431, 0.0, 0.0, 0.0, 0.0, 0.0, 1.677029461989151E9, 0.0, 2023-02-21 19:31:01.989
60.0, -632.987417250406, 282.58123080199584, 5975.092303107493, -6250.975373088848, 0.0, -0.09600000455975533, 1.008000047877431, 0.0, 0.0, 0.0, 0.0, 0.0, 1.677029461989151E9, 0.0, 2023-02-21 19:31:01.989
61.0, -443.2959515978582, 194.36260069720447, 6215.446323509794, -6401.154795709532, 0.0, -0.09600000455975533, 1.008000047877431, 0.0, 0.0, 0.0, 0.0, 0.0, 1.677029462013139E9, 0.0, 2023-02-21 19:31:02.013
61.0, -213.62121551902965, -11.722716411110014, 5971.900298495311, -6181.856412057765, 0.0, -0.09600000455975533, 1.008000047877431, 0.0, 0.0, 0.0, 0.0, 0.0, 1.677029462013139E9, 0.0, 2023-02-21 19:31:02.013
62.0, -104.61996136046946, 229.82807197701186, 5825.346708881669, -6319.142529581208, 0.01600000075995922, -0.09600000455975533, 1.008000047877431, 0.0, 0.0, 0.0, 0.0, 0.0, 1.677029462037097E9, 0.0, 2023-02-21 19:31:02.037
62.0, -143.99175814399496, 388.9271559920162, 5621.914850791916, -6554.329878194723, 0.01600000075995922, -0.09600000455975533, 1.008000047877431, 0.0, 0.0, 0.0, 0.0, 0.0, 1.677029462037097E9, 0.0, 2023-02-21 19:31:02.037
63.0, -305.4114500815049, 414.48189238924533, 5833.565139034297, -6523.900182205252, 0.01600000075995922, -0.09600000455975533, 1.008000047877431, 0.0, 0.0, 0.0, 0.0, 0.0, 1.677029462061106E9, 0.0, 2023-02-21 19:31:02.061
63.0, -211.5642705434002, 630.9042929750867, 6063.77468080679, -6507.16412990354, 0.01600000075995922, -0.09600000455975533, 1.008000047877431, 0.0, 0.0, 0.0, 0.0, 0.0, 1.677029462061106E9, 0.0, 2023-02-21 19:31:02.061
64.0, -380.6040086406283, 470.44762527616695, 6185.706639062148, -6630.758473689202, 0.01600000075995922, -0.09600000455975533, 1.008000047877431, 0.0, 0.0, 0.0, 0.0, 0.0, 1.677029462085115E9, 0.0, 2023-02-21 19:31:02.085
64.0, -613.7662014281377, 507.9999607312493, 6211.786831403151, -6474.843914486468, 0.01600000075995922, -0.09600000455975533, 1.008000047877431, 0.0, 0.0, 0.0, 0.0, 0.0, 1.677029462085115E9, 0.0, 2023-02-21 19:31:02.085
65.0, -594.1915650600567, 507.4838545373641, 6291.147508462891, -6587.77393354848, 0.01600000075995922, -0.09600000455975533, 1.008000047877431, 0.0, 0.0, 0.0, 0.0, 0.0, 1.677029462109125E9, 0.0, 2023-02-21 19:31:02.109
65.0, -613.496928631328, 567.6756743742153, 6266.810109501239, -6717.7485466585495, 0.01600000075995922, -0.09600000455975533, 1.008000047877431, 0.0, 0.0, 0.0, 0.0, 0.0, 1.677029462109125E9, 0.0, 2023-02-21 19:31:02.109
66.0, -454.78305431175977, 529.6427617748268, 6183.7693708851, -6880.082644135226, 0.01600000075995922, -0.09600000455975533, 1.008000047877431, 0.0, 0.0, 0.0, 0.0, 0.0, 1.677029462133113E9, 0.0, 2023-02-21 19:31:02.133
66.0, -252.65268140658736, 491.3069172790274, 6142.982021968346, -6683.335857216269, 0.01600000075995922, -0.09600000455975533, 1.008000047877431, 0.0, 0.0, 0.0, 0.0, 0.0, 1.677029462133113E9, 0.0, 2023-02-21 19:31:02.133
67.0, -89.91654468467459, 522.6304493579082, 6196.832841430325, -6796.1630290295, 0.01600000075995922, -0.09600000455975533, 1.008000047877431, 0.0, 0.0, 0.0, 0.0, 0.0, 1.67702946215712E9, 0.0, 2023-02-21 19:31:02.157
67.0, -147.1800228562206, 618.9066939172335, 6048.055881293025, -7001.45361739723, 0.01600000075995922, -0.09600000455975533, 1.008000047877431, 0.0, 0.0, 0.0, 0.0, 0.0, 1.67702946215712E9, 0.0, 2023-02-21 19:31:02.157
68.0, -357.39792941557243, 622.5269170743413, 6020.002891725395, -6905.306399386376, 0.01600000075995922, -0.09600000455975533, 1.008000047877431, 0.0, 0.0, 0.0, 0.0, 0.0, 1.677029462181098E9, 0.0, 2023-02-21 19:31:02.181
68.0, -203.0242089945823, 505.43064946169034, 6022.317889797967, -7020.990854765754, 0.01600000075995922, -0.09600000455975533, 1.008000047877431, 0.0, 0.0, 0.0, 0.0, 0.0, 1.677029462181098E9, 0.0, 2023-02-21 19:31:02.181
69.0, -363.64169239159673, 297.3014770275913, 6081.898235992063, -7133.406637583859, 0.01600000075995922, -0.09600000455975533, 1.008000047877431, 0.0, 0.0, 0.0, 0.0, 0.0, 1.677029462205124E9, 0.0, 2023-02-21 19:31:02.205
69.0, -186.47515169065446, 198.36429364979267, 5842.836351024453, -7307.424182522111, 0.01600000075995922, -0.09600000455975533, 1.008000047877431, 0.0, 0.0, 0.0, 0.0, 0.0, 1.677029462205124E9, 0.0, 2023-02-21 19:31:02.205
70.0, -154.75706016644835, 322.6262095775455, 5909.406570235733, -7492.631508127786, 0.01600000075995922, -0.09600000455975533, 1.008000047877431, 0.0, 0.0, 0.0, 0.0, 0.0, 1.67702946222911E9, 0.0, 2023-02-21 19:31:02.229
70.0, -91.99966895999387, 140.35470543708652, 5676.259337048046, -7315.966114020906, 0.01600000075995922, -0.09600000455975533, 1.008000047877431, 0.0, 0.0, 0.0, 0.0, 0.0, 1.67702946222911E9, 0.0, 2023-02-21 19:31:02.229
71.0, 14.250888781156391, -70.00905722053722, 5701.987978793215, -7335.645467587747, 0.01600000075995922, -0.09600000455975533, 1.008000047877431, 0.0, 0.0, 0.0, 0.0, 0.0, 1.677029462253121E9, 0.0, 2023-02-21 19:31:02.253
71.0, 175.6948900683783, -255.2369522759691, 5755.982784403488, -7517.07175433822, 0.01600000075995922, -0.09600000455975533, 1.008000047877431, 0.0, 0.0, 0.0, 0.0, 0.0, 1.677029462253121E9, 0.0, 2023-02-21 19:31:02.253
72.0, -49.65278176171705, -336.2992838155478, 5610.375389478635, -7408.73807232175, 0.01600000075995922, -0.09600000455975533, 1.008000047877431, 0.0, 0.0, 0.0, 0.0, 0.0, 1.677029462277123E9, 0.0, 2023-02-21 19:31:02.277
72.0, -148.05515944585204, -342.8758978876285, 5528.583777447697, -7521.073447290808, 0.01600000075995922, -0.09600000455975533, 1.008000047877431, 0.0, 0.0, 0.0, 0.0, 0.0, 1.677029462277123E9, 0.0, 2023-02-21 19:31:02.277
73.0, -387.2348512620665, -401.8896492384374, 5513.7887332229875, -7349.533586073201, 0.01600000075995922, -0.09600000455975533, 1.008000047877431, 0.0, 0.0, 0.0, 0.0, 0.0, 1.677029462301132E9, 0.0, 2023-02-21 19:31:02.301
73.0, -213.64926476869732, -402.6039701299742, 5540.3943815077655, -7549.792139050551, 0.01600000075995922, -0.09600000455975533, 1.008000047877431, 0.0, 0.0, 0.0, 0.0, 0.0, 1.677029462301132E9, 0.0, 2023-02-21 19:31:02.301
74.0, -366.9440240524709, -604.753042534925, 5560.881553465035, -7664.201288545039, 0.01600000075995922, -0.09600000455975533, 1.008000047877431, 0.0, 0.0, 0.0, 0.0, 0.0, 1.677029462325109E9, 0.0, 2023-02-21 19:31:02.325
74.0, -173.17232754826546, -727.120699135121, 5768.391772456467, -7844.221372912172, 0.01600000075995922, -0.09600000455975533, 1.008000047877431, 0.0, 0.0, 0.0, 0.0, 0.0, 1.677029462325109E9, 0.0, 2023-02-21 19:31:02.325
75.0, -159.20380121376365, -676.4076557359658, 5882.368963506073, -7979.508513909299, 0.01600000075995922, -0.09600000455975533, 1.008000047877431, 0.0, 0.0, 0.0, 0.0, 0.0, 1.677029462349092E9, 0.0, 2023-02-21 19:31:02.349
75.0, -81.92811837932095, -827.753927142825, 5662.296420563478, -7831.546851962339, 0.01600000075995922, -0.09600000455975533, 1.008000047877431, 0.0, 0.0, 0.0, 0.0, 0.0, 1.677029462349092E9, 0.0, 2023-02-21 19:31:02.349
76.0, 25.59774524671957, -1050.5827763527632, 5669.923946523108, -7830.718464122154, 0.01600000075995922, -0.09600000455975533, 1.008000047877431, 0.0, 0.0, 0.0, 0.0, 0.0, 1.677029462373107E9, 0.0, 2023-02-21 19:31:02.373
76.0, 173.56314709363505, -1236.401575601194, 5728.960137273651, -7997.529221845791, 0.01600000075995922, -0.09600000455975533, 1.008000047877431, 0.0, 0.0, 0.0, 0.0, 0.0, 1.677029462373107E9, 0.0, 2023-02-21 19:31:02.373
77.0, -58.18723346060142, -1251.0619834274985, 5608.211857354268, -7922.671384332702, 0.01600000075995922, -0.09600000455975533, 1.008000047877431, 0.0, 0.0, 0.0, 0.0, 0.0, 1.677029462397092E9, 0.0, 2023-02-21 19:31:02.397
77.0, -152.4383221939206, -1246.3908483828418, 5529.228910190053, -8030.4814803553745, 0.01600000075995922, -0.09600000455975533, 1.008000047877431, 0.0, 0.0, 0.0, 0.0, 0.0, 1.677029462397092E9, 0.0, 2023-02-21 19:31:02.397
78.0, -391.7900494080968, -1312.951717844233, 5490.016059154645, -7846.525151284877, 0.01600000075995922, -0.09600000455975533, 1.008000047877431, 0.0, 0.0, 0.0, 0.0, 0.0, 1.677029462421093E9, 0.0, 2023-02-21 19:31:02.421
78.0, -213.5071485703811, -1295.9669621954672, 5574.50039915368, -8040.867182532325, 0.01600000075995922, -0.09600000455975533, 1.008000047877431, 0.0, 0.0, 0.0, 0.0, 0.0, 1.677029462421093E9, 0.0, 2023-02-21 19:31:02.421
79.0, -353.37566701322794, -1493.931086550001, 5552.186286068056, -8160.665527862962, 0.01600000075995922, -0.09600000455975533, 1.008000047877431, 0.0, 0.0, 0.0, 0.0, 0.0, 1.677029462445094E9, 0.0, 2023-02-21 19:31:02.445
79.0, -161.61977658513933, -1626.2319174325094, 5755.219844812527, -8340.1620262363, 0.01600000075995922, -0.09600000455975533, 1.008000047877431, 0.0, 0.0, 0.0, 0.0, 0.0, 1.677029462445094E9, 0.0, 2023-02-21 19:31:02.445
80.0, -163.31021136511117, -1598.6202360596508, 5918.9975436721, -8468.900602411013, 0.01600000075995922, -0.09600000455975533, 1.0240000486373901, 0.0, 0.0, 0.0, 0.0, 0.0, 1.677029462469115E9, 0.0, 2023-02-21 19:31:02.469
80.0, -82.50780287245288, -1748.9679541783407, 6160.927931905724, -8324.7162394193, 0.01600000075995922, -0.09600000455975533, 1.0240000486373901, 0.0, 0.0, 0.0, 0.0, 0.0, 1.677029462469115E9, 0.0, 2023-02-21 19:31:02.469
81.0, 25.369611349422485, -1977.8217822168954, 6167.108116582502, -8335.505850791465, 0.01600000075995922, -0.09600000455975533, 1.0240000486373901, 0.0, 0.0, 0.0, 0.0, 0.0, 1.677029462493133E9, 0.0, 2023-02-21 19:31:02.493
81.0, 177.76305474387482, -2162.728045876138, 6223.028970669955, -8512.171244898345, 0.01600000075995922, -0.09600000455975533, 1.0240000486373901, 0.0, 0.0, 0.0, 0.0, 0.0, 1.677029462493133E9, 0.0, 2023-02-21 19:31:02.493
82.0, -62.93316650437191, -2207.049600251019, 6151.277120070066, -8399.858309329022, 0.01600000075995922, -0.09600000455975533, 1.0240000486373901, 0.0, 0.0, 0.0, 0.0, 0.0, 1.677029462517126E9, 0.0, 2023-02-21 19:31:02.517
82.0, -152.91328948829323, -2192.4602505238727, 6019.082876336295, -8522.938416870777, 0.01600000075995922, -0.09600000455975533, 1.0240000486373901, 0.0, 0.0, 0.0, 0.0, 0.0, 1.677029462517126E9, 0.0, 2023-02-21 19:31:02.517
83.0, -374.6725273109041, -2232.206037302967, 5974.3948117657565, -8362.438740322366, 0.01600000075995922, -0.09600000455975533, 1.0240000486373901, 0.0, 0.0, 0.0, 0.0, 0.0, 1.677029462541126E9, 0.0, 2023-02-21 19:31:02.541
83.0, -224.1845629438758, -2265.4911469086073, 6106.910686895717, -8510.574307617266, 0.01600000075995922, -0.09600000455975533, 1.0240000486373901, 0.0, 0.0, 0.0, 0.0, 0.0, 1.677029462541126E9, 0.0, 2023-02-21 19:31:02.541
84.0, -351.9021464306861, -2459.102027714718, 6062.067416477017, -8651.820979193784, 0.01600000075995922, -0.09600000455975533, 1.0240000486373901, 0.0, 0.0, 0.0, 0.0, 0.0, 1.677029462565114E9, 0.0, 2023-02-21 19:31:02.565
84.0, -156.29041914828122, -2568.5445900680497, 6222.088385831099, -8855.26779688336, 0.01600000075995922, -0.09600000455975533, 1.0240000486373901, 0.0, 0.0, 0.0, 0.0, 0.0, 1.677029462565114E9, 0.0, 2023-02-21 19:31:02.565
85.0, -160.4117888994515, -2549.1158097982407, 6447.2752419631, -8955.680370793678, 0.01600000075995922, -0.09600000455975533, 1.0240000486373901, 0.0, 0.0, 0.0, 0.0, 0.0, 1.677029462589107E9, 0.0, 2023-02-21 19:31:02.589
85.0, -87.88577900873497, -2741.840334314853, 6670.741744115483, -8789.98036335688, 0.01600000075995922, -0.09600000455975533, 1.0240000486373901, 0.0, 0.0, 0.0, 0.0, 0.0, 1.677029462589107E9, 0.0, 2023-02-21 19:31:02.589
86.0, 34.13593684555963, -2930.18730593333, 6661.418173525948, -8823.531005859375, 0.01600000075995922, -0.09600000455975533, 1.0240000486373901, 0.0, 0.0, 0.0, 0.0, 0.0, 1.677029462613107E9, 0.0, 2023-02-21 19:31:02.613
86.0, 183.98250837018713, -3100.2349470686167, 6729.860212665051, -9004.343949017115, 0.01600000075995922, -0.09600000455975533, 1.0240000486373901, 0.0, 0.0, 0.0, 0.0, 0.0, 1.677029462613107E9, 0.0, 2023-02-21 19:31:02.613
87.0, 423.4987911824137, -3186.017032352276, 6672.439658695366, -8863.600293984637, 0.01600000075995922, -0.09600000455975533, 1.0240000486373901, 0.0, 0.0, 0.0, 0.0, 0.0, 1.677029462637104E9, 0.0, 2023-02-21 19:31:02.637
87.0, 344.2634007711895, -3153.659417935647, 6509.8961268211715, -8995.345749723725, 0.01600000075995922, -0.09600000455975533, 1.0240000486373901, 0.0, 0.0, 0.0, 0.0, 0.0, 1.677029462637104E9, 0.0, 2023-02-21 19:31:02.637
88.0, 121.86090015619993, -3180.5474286670797, 6484.371309623588, -8853.98314124858, 0.01600000075995922, -0.09600000455975533, 1.0240000486373901, 0.0, 0.0, 0.0, 0.0, 0.0, 1.677029462661095E9, 0.0, 2023-02-21 19:31:02.661
88.0, 261.27876065438613, -3238.2503450834192, 6625.732048148755, -8978.089851328172, 0.01600000075995922, -0.09600000455975533, 1.0240000486373901, 0.0, 0.0, 0.0, 0.0, 0.0, 1.677029462661095E9, 0.0, 2023-02-21 19:31:02.661
89.0, 135.69292014231905, -3422.6386325987987, 6550.662906288169, -9123.37187495688, 0.01600000075995922, -0.09600000455975533, 1.0240000486373901, 0.0, 0.0, 0.0, 0.0, 0.0, 1.677029462685094E9, 0.0, 2023-02-21 19:31:02.685
89.0, 341.09196560876444, -3525.884180725552, 6738.187099916395, -9336.232020834927, 0.01600000075995922, -0.09600000455975533, 1.0240000486373901, 0.0, 0.0, 0.0, 0.0, 0.0, 1.677029462685094E9, 0.0, 2023-02-21 19:31:02.685
90.0, 329.2551822490059, -3518.5240576127544, 6969.3914550771005, -9410.562532454263, 0.01600000075995922, -0.09600000455975533, 1.008000047877431, 0.0, 0.0, 0.0, 0.0, 0.0, 1.677029462709101E9, 0.0, 2023-02-21 19:31:02.709
90.0, 404.8628697032109, -3711.2598018292338, 7175.590839134064, -9267.010212555062, 0.01600000075995922, -0.09600000455975533, 1.008000047877431, 0.0, 0.0, 0.0, 0.0, 0.0, 1.677029462709101E9, 0.0, 2023-02-21 19:31:02.709
91.0, 522.3817460108548, -3903.6159462002106, 7149.104867647868, -9293.541062840726, 0.01600000075995922, -0.09600000455975533, 1.008000047877431, 0.0, 0.0, 0.0, 0.0, 0.0, 1.677029462733109E9, 0.0, 2023-02-21 19:31:02.733
91.0, 668.8025691760704, -4082.265357233584, 7260.7390113752335, -9471.90437152749, 0.01600000075995922, -0.09600000455975533, 1.008000047877431, 0.0, 0.0, 0.0, 0.0, 0.0, 1.677029462733109E9, 0.0, 2023-02-21 19:31:02.733
92.0, 908.1243771906011, -4188.7889276715, 7162.003782595042, -9323.250828088727, 0.01600000075995922, -0.09600000455975533, 1.008000047877431, 0.0, 0.0, 0.0, 0.0, 0.0, 1.677029462757125E9, 0.0, 2023-02-21 19:31:02.757
92.0, 832.3147351387888, -4144.751605693251, 7019.850185279269, -9474.40262469789, 0.01600000075995922, -0.09600000455975533, 1.008000047877431, 0.0, 0.0, 0.0, 0.0, 0.0, 1.677029462757125E9, 0.0, 2023-02-21 19:31:02.757
93.0, 607.0773903573863, -4173.640462900978, 6979.212432360742, -9321.236891962588, 0.01600000075995922, -0.09600000455975533, 1.008000047877431, 0.0, 0.0, 0.0, 0.0, 0.0, 1.677029462781102E9, 0.0, 2023-02-21 19:31:02.781
93.0, 745.0553893726319, -4245.308165751863, 7164.722689862829, -9437.052243840415, 0.01600000075995922, -0.09600000455975533, 1.008000047877431, 0.0, 0.0, 0.0, 0.0, 0.0, 1.677029462781102E9, 0.0, 2023-02-21 19:31:02.781
94.0, 624.9709416953847, -4412.107703775633, 7026.093948255293, -9607.866564466618, 0.01600000075995922, -0.09600000455975533, 1.008000047877431, 0.0, 0.0, 0.0, 0.0, 0.0, 1.677029462805135E9, 0.0, 2023-02-21 19:31:02.805
94.0, 828.6010144827887, -4510.308126862161, 7227.227637822274, -9813.9799308246, 0.01600000075995922, -0.09600000455975533, 1.008000047877431, 0.0, 0.0, 0.0, 0.0, 0.0, 1.677029462805135E9, 0.0, 2023-02-21 19:31:02.805
95.0, 809.1460549132898, -4514.253721315414, 7011.837449624203, -9890.457145018503, 0.01600000075995922, -0.09600000455975533, 1.008000047877431, 0.0, 0.0, 0.0, 0.0, 0.0, 1.677029462829103E9, 0.0, 2023-02-21 19:31:02.829
95.0, 899.7395214899443, -4664.2536287382245, 7147.734194314107, -9762.575005933642, 0.01600000075995922, -0.09600000455975533, 1.008000047877431, 0.0, 0.0, 0.0, 0.0, 0.0, 1.677029462829103E9, 0.0, 2023-02-21 19:31:02.829
96.0, 1014.3936344315298, -4869.112258661073, 7156.352793761995, -9793.13746837154, 0.01600000075995922, -0.09600000455975533, 1.008000047877431, 0.0, 0.0, 0.0, 0.0, 0.0, 1.677029462853112E9, 0.0, 2023-02-21 19:31:02.853
96.0, 1152.7699327920564, -5075.332212167792, 7279.307614655234, -9940.444647826254, 0.01600000075995922, -0.09600000455975533, 1.008000047877431, 0.0, 0.0, 0.0, 0.0, 0.0, 1.677029462853112E9, 0.0, 2023-02-21 19:31:02.853
97.0, 919.2281401590444, -5127.410319050774, 7162.688184286933, -9837.249588348903, 0.01600000075995922, -0.09600000455975533, 1.008000047877431, 0.0, 0.0, 0.0, 0.0, 0.0, 1.677029462877107E9, 0.0, 2023-02-21 19:31:02.877
97.0, 836.0097562950104, -5102.2333125490695, 6989.287722841371, -9975.46881091129, 0.01600000075995922, -0.09600000455975533, 1.008000047877431, 0.0, 0.0, 0.0, 0.0, 0.0, 1.677029462877107E9, 0.0, 2023-02-21 19:31:02.877
98.0, 591.631603540387, -5178.27856829809, 7008.695933661424, -9800.802393330727, 0.01600000075995922, -0.09600000455975533, 1.008000047877431, 0.0, 0.0, 0.0, 0.0, 0.0, 1.677029462901097E9, 0.0, 2023-02-21 19:31:02.901
98.0, 743.7800834877416, -5218.4974524215795, 7157.61500999704, -9934.501946796663, 0.01600000075995922, -0.09600000455975533, 1.008000047877431, 0.0, 0.0, 0.0, 0.0, 0.0, 1.677029462901097E9, 0.0, 2023-02-21 19:31:02.901
99.0, 634.1187369870022, -5381.919860785361, 7027.393563489895, -10118.117944971193, 0.01600000075995922, -0.09600000455975533, 1.008000047877431, 0.0, 0.0, 0.0, 0.0, 0.0, 1.677029462925118E9, 0.0, 2023-02-21 19:31:02.925
99.0, 828.7618301808834, -5509.111988328397, 7206.099073022604, -10303.026078580413, 0.01600000075995922, -0.09600000455975533, 1.008000047877431, 0.0, 0.0, 0.0, 0.0, 0.0, 1.677029462925118E9, 0.0, 2023-02-21 19:31:02.925
100.0, 799.6504489257932, -5518.644993315451, 7061.090062090661, -10366.753973825369, 0.01600000075995922, -0.09600000455975533, 1.008000047877431, 0.0, 0.0, 0.0, 0.0, 0.0, 1.677029462949093E9, 0.0, 2023-02-21 19:31:02.949
100.0, 902.0507796625607, -5640.154342875816, 7123.157441755291, -10276.764501091558, 0.01600000075995922, -0.09600000455975533, 1.008000047877431, 0.0, 0.0, 0.0, 0.0, 0.0, 1.677029462949093E9, 0.0, 2023-02-21 19:31:02.949
0.0, 35.5159599292092, 24.874074605293572, -212.7872178289108, 6.692550970707089, 0.01600000075995922, -0.09600000455975533, 1.008000047877431, 0.0, 0.0, 0.0, 0.0, 0.0, 1.677029462973142E9, 0.0, 2023-02-21 19:31:02.973
1.0, 162.36214672634378, -194.56268534483388, -48.442924126051366, -135.92105403961614, 0.01600000075995922, -0.09600000455975533, 1.008000047877431, 0.0, 0.0, 0.0, 0.0, 0.0, 1.677029462997114E9, 0.0, 2023-02-21 19:31:02.997
1.0, -61.994451615493745, -222.0135510195978, -198.7438934952952, -35.20928813284263, 0.01600000075995922, -0.09600000455975533, 1.008000047877431, 0.0, 0.0, 0.0, 0.0, 0.0, 1.677029462997114E9, 0.0, 2023-02-21 19:31:02.997
2.0, -139.5094880471006, -194.6262636440806, -359.84382398659363, -181.53287389921024, 0.01600000075995922, -0.09600000455975533, 1.008000047877431, 0.0, 0.0, 0.0, 0.0, 0.0, 1.677029463021103E9, 0.0, 2023-02-21 19:31:03.021
2.0, -379.13796785799786, -261.84161559771746, -374.66504751099274, -4.1251096511259675, 0.01600000075995922, -0.09600000455975533, 1.008000047877431, 0.0, 0.0, 0.0, 0.0, 0.0, 1.677029463021103E9, 0.0, 2023-02-21 19:31:03.021
3.0, -245.83484378736466, -321.4855400910601, -161.33367423852906, -124.02443228056654, 0.01600000075995922, -0.09600000455975533, 1.008000047877431, 0.0, 0.0, 0.0, 0.0, 0.0, 1.677029463045112E9, 0.0, 2023-02-21 19:31:03.045
3.0, -344.7963365148753, -462.5807457193732, -365.67245806753635, -321.040491996333, 0.01600000075995922, -0.09600000455975533, 1.008000047877431, 0.0, 0.0, 0.0, 0.0, 0.0, 1.677029463045112E9, 0.0, 2023-02-21 19:31:03.045
4.0, -153.02548648696393, -579.77612068085, -158.56988817127421, -511.5472558392212, 0.01600000075995922, -0.09600000455975533, 1.008000047877431, 0.0, 0.0, 0.0, 0.0, 0.0, 1.677029463069122E9, 0.0, 2023-02-21 19:31:03.069
4.0, -183.31867612805218, -608.2853780430742, -293.6980834202841, -561.6394758457318, 0.01600000075995922, -0.09600000455975533, 1.008000047877431, 0.0, 0.0, 0.0, 0.0, 0.0, 1.677029463069122E9, 0.0, 2023-02-21 19:31:03.069
5.0, -75.45061165606603, -734.4209838486277, -220.48206198774278, -463.64287730678916, 0.01600000075995922, -0.09600000455975533, 1.008000047877431, 0.0, 0.0, 0.0, 0.0, 0.0, 1.677029463093119E9, 0.0, 2023-02-21 19:31:03.093
5.0, 37.93567520054057, -932.2785210544243, -234.79465911816806, -487.8587295198813, 0.01600000075995922, -0.09600000455975533, 1.008000047877431, 0.0, 0.0, 0.0, 0.0, 0.0, 1.677029463093119E9, 0.0, 2023-02-21 19:31:03.093
6.0, 175.46675617108122, -1146.6664160643704, -54.50343200424686, -628.6023845523596, 0.01600000075995922, -0.09600000455975533, 1.008000047877431, 0.0, 0.0, 0.0, 0.0, 0.0, 1.677029463117122E9, 0.0, 2023-02-21 19:31:03.117
6.0, -66.27663706475869, -1201.3100943169557, -186.21709859371185, -513.5443624155596, 0.01600000075995922, -0.09600000455975533, 1.008000047877431, 0.0, 0.0, 0.0, 0.0, 0.0, 1.677029463117122E9, 0.0, 2023-02-21 19:31:03.117
7.0, -132.66173122823238, -1152.171548799146, -367.41525144688785, -671.4653779445216, 0.01600000075995922, -0.09600000455975533, 1.008000047877431, 0.0, 0.0, 0.0, 0.0, 0.0, 1.677029463141114E9, 0.0, 2023-02-21 19:31:03.141
7.0, -369.3730890736915, -1207.6959734912962, -376.0282410448417, -516.4970134305768, 0.01600000075995922, -0.09600000455975533, 1.008000047877431, 0.0, 0.0, 0.0, 0.0, 0.0, 1.677029463141114E9, 0.0, 2023-02-21 19:31:03.141
8.0, -237.63698308449239, -1278.7615524493158, -619.3667016117834, -594.1242468608543, 0.01600000075995922, -0.09600000455975533, 1.008000047877431, 0.0, 0.0, 0.0, 0.0, 0.0, 1.677029463165115E9, 0.0, 2023-02-21 19:31:03.165
8.0, -348.92892596591264, -1424.692448720336, -859.2532345196232, -807.9885558770038, 0.01600000075995922, -0.09600000455975533, 1.008000047877431, 0.0, 0.0, 0.0, 0.0, 0.0, 1.677029463165115E9, 0.0, 2023-02-21 19:31:03.165
9.0, -142.96889550611377, -1533.502967981156, -658.5945122470148, -1006.5585440243594, 0.01600000075995922, -0.09600000455975533, 1.008000047877431, 0.0, 0.0, 0.0, 0.0, 0.0, 1.67702946318917E9, 0.0, 2023-02-21 19:31:03.189
9.0, -192.48517091944814, -1572.3754881205969, -743.1330807954073, -1035.8157813777216, 0.01600000075995922, -0.09600000455975533, 1.008000047877431, 0.0, 0.0, 0.0, 0.0, 0.0, 1.67702946318917E9, 0.0, 2023-02-21 19:31:03.189
10.0, -74.62783366581425, -1705.7365806405433, -725.7799450010061, -938.047316736076, 0.01600000075995922, -0.09600000455975533, 1.008000047877431, 0.0, 0.0, 0.0, 0.0, 0.0, 1.677029463213157E9, 0.0, 2023-02-21 19:31:03.213
10.0, 40.35165057191625, -1908.9384348830208, -712.213457911741, -981.9013836164959, 0.01600000075995922, -0.09600000455975533, 1.008000047877431, 0.0, 0.0, 0.0, 0.0, 0.0, 1.677029463213157E9, 0.0, 2023-02-21 19:31:03.213
11.0, 173.02086160006002, -2110.4386346456595, -541.8516651801765, -1119.245469589252, 0.01600000075995922, -0.09600000455975533, 1.008000047877431, 0.0, 0.0, 0.0, 0.0, 0.0, 1.677029463237112E9, 0.0, 2023-02-21 19:31:03.237
11.0, 415.06905668228865, -2192.469600273762, -648.7697950634174, -978.161483660806, 0.01600000075995922, -0.09600000455975533, 1.008000047877431, 0.0, 0.0, 0.0, 0.0, 0.0, 1.677029463237112E9, 0.0, 2023-02-21 19:31:03.237
12.0, 357.2969521167688, -2142.0220897714607, -875.6770051750354, -1155.9974664538167, 0.01600000075995922, -0.09600000455975533, 1.008000047877431, 0.0, 0.0, 0.0, 0.0, 0.0, 1.67702946326111E9, 0.0, 2023-02-21 19:31:03.261
12.0, 120.53323567193002, -2181.457464854233, -849.88478513062, -1001.7172435317189, 0.01600000075995922, -0.09600000455975533, 1.008000047877431, 0.0, 0.0, 0.0, 0.0, 0.0, 1.67702946326111E9, 0.0, 2023-02-21 19:31:03.261
13.0, 235.62678685830906, -2288.074532791041, -609.9926423728466, -1069.1158505831845, 0.01600000075995922, -0.09600000455975533, 1.008000047877431, 0.0, 0.0, 0.0, 0.0, 0.0, 1.677029463285129E9, 0.0, 2023-02-21 19:31:03.285
13.0, 146.1235011187382, -2423.462651086971, -845.6007297313772, -1287.913087640889, 0.01600000075995922, -0.09600000455975533, 1.008000047877431, 0.0, 0.0, 0.0, 0.0, 0.0, 1.677029463285129E9, 0.0, 2023-02-21 19:31:03.285
14.0, 352.49866047361866, -2495.3154789856635, -676.3235079869628, -1506.3643839526922, 0.01600000075995922, -0.09600000455975533, 1.008000047877431, 0.0, 0.0, 0.0, 0.0, 0.0, 1.677029463309098E9, 0.0, 2023-02-21 19:31:03.309
14.0, 295.84665594482794, -2547.7675758642145, -711.0466091255657, -1524.7684316346422, 0.01600000075995922, -0.09600000455975533, 1.008000047877431, 0.0, 0.0, 0.0, 0.0, 0.0, 1.677029463309098E9, 0.0, 2023-02-21 19:31:03.309
15.0, 412.96349300723523, -2700.5761481537484, -724.6056164149195, -1416.1131182219833, 0.01600000075995922, -0.09600000455975533, 1.008000047877431, 0.0, 0.0, 0.0, 0.0, 0.0, 1.677029463333125E9, 0.0, 2023-02-21 19:31:03.333
15.0, 530.8002608111128, -2874.8648358387873, -715.7514032698236, -1468.9242454962805, 0.01600000075995922, -0.09600000455975533, 1.008000047877431, 0.0, 0.0, 0.0, 0.0, 0.0, 1.677029463333125E9, 0.0, 2023-02-21 19:31:03.333
16.0, 670.9118727510795, -3061.4016958787106, -536.997275037691, -1622.5780351758003, 0.01600000075995922, -0.09600000455975533, 1.008000047877431, 0.0, 0.0, 0.0, 0.0, 0.0, 1.677029463357099E9, 0.0, 2023-02-21 19:31:03.357
16.0, 899.4365895935334, -3183.9357780269347, -631.6784522659145, -1460.1766194999218, 0.01600000075995922, -0.09600000455975533, 1.008000047877431, 0.0, 0.0, 0.0, 0.0, 0.0, 1.677029463357099E9, 0.0, 2023-02-21 19:31:03.357
17.0, 842.9584904126823, -3113.2853279639967, -873.3582672025077, -1643.6785507258028, 0.01600000075995922, -0.09600000455975533, 1.008000047877431, 0.0, 0.0, 0.0, 0.0, 0.0, 1.677029463381107E9, 0.0, 2023-02-21 19:31:03.381
17.0, 617.4855319340713, -3140.1209800960496, -849.3574592368677, -1501.8334951563738, 0.01600000075995922, -0.09600000455975533, 1.008000047877431, 0.0, 0.0, 0.0, 0.0, 0.0, 1.677029463381107E9, 0.0, 2023-02-21 19:31:03.381
18.0, 723.139575632289, -3264.689567820169, -1071.7450002520345, -1542.136527028866, 0.01600000075995922, -0.09600000455975533, 1.008000047877431, 0.0, 0.0, 0.0, 0.0, 0.0, 1.677029463405135E9, 0.0, 2023-02-21 19:31:03.405
18.0, 637.0582983521745, -3396.135831562802, -847.0518109141849, -1779.4986274666153, 0.01600000075995922, -0.09600000455975533, 1.008000047877431, 0.0, 0.0, 0.0, 0.0, 0.0, 1.677029463405135E9, 0.0, 2023-02-21 19:31:03.405
19.0, 847.4388905595988, -3482.9594789841212, -682.4980828138068, -2002.3293466265313, 0.01600000075995922, -0.09600000455975533, 1.008000047877431, 0.0, 0.0, 0.0, 0.0, 0.0, 1.677029463429112E9, 0.0, 2023-02-21 19:31:03.429
19.0, 774.6716571217403, -3553.4229340492748, -675.1080405013636, -1998.9970957660116, 0.01600000075995922, -0.09600000455975533, 1.008000047877431, 0.0, 0.0, 0.0, 0.0, 0.0, 1.677029463429112E9, 0.0, 2023-02-21 19:31:03.429
20.0, 901.0297869746573, -3689.0466660424136, -738.7293485975824, -1906.0867611668073, 0.01600000075995922, -0.09600000455975533, 1.008000047877431, 0.0, 0.0, 0.0, 0.0, 0.0, 1.677029463453113E9, 0.0, 2023-02-21 19:31:03.453
20.0, 1022.7672704323195, -3861.8992321444675, -702.0764590818435, -1957.7796583543532, 0.01600000075995922, -0.09600000455975533, 1.008000047877431, 0.0, 0.0, 0.0, 0.0, 0.0, 1.677029463453113E9, 0.0, 2023-02-21 19:31:03.453
21.0, 1155.3467238615267, -4058.515122564975, -510.0120269074105, -2106.3359643942676, 0.01600000075995922, -0.09600000455975533, 1.008000047877431, 0.0, 0.0, 0.0, 0.0, 0.0, 1.677029463477144E9, 0.0, 2023-02-21 19:31:03.477
21.0, 1392.0094630075619, -4165.902609892655, -634.9041159776971, -1947.9960800702684, 0.01600000075995922, -0.09600000455975533, 1.008000047877431, 0.0, 0.0, 0.0, 0.0, 0.0, 1.677029463477144E9, 0.0, 2023-02-21 19:31:03.477
22.0, 1329.281991000753, -4104.23913942324, -869.6651159962639, -2146.648346016649, 0.01600000075995922, -0.09600000455975533, 1.008000047877431, 0.0, 0.0, 0.0, 0.0, 0.0, 1.677029463501138E9, 0.0, 2023-02-21 19:31:03.501
22.0, 1107.679828976281, -4131.460001250729, -863.58590861829, -1984.9818206820637, 0.01600000075995922, -0.09600000455975533, 1.008000047877431, 0.0, 0.0, 0.0, 0.0, 0.0, 1.677029463501138E9, 0.0, 2023-02-21 19:31:03.501
23.0, 1210.1848769118078, -4255.994929875247, -1038.3495635977015, -2033.9651603517123, 0.01600000075995922, -0.09600000455975533, 1.008000047877431, 0.0, 0.0, 0.0, 0.0, 0.0, 1.677029463525121E9, 0.0, 2023-02-21 19:31:03.525
23.0, 1132.7577281291597, -4381.502232488245, -885.8775823041797, -2275.2354562431574, 0.01600000075995922, -0.09600000455975533, 1.008000047877431, 0.0, 0.0, 0.0, 0.0, 0.0, 1.677029463525121E9, 0.0, 2023-02-21 19:31:03.525
24.0, 1335.0788359320723, -4471.5010549719445, -672.0057934881188, -2497.0638822149485, 0.01600000075995922, -0.09600000455975533, 1.008000047877431, 0.0, 0.0, 0.0, 0.0, 0.0, 1.677029463549127E9, 0.0, 2023-02-21 19:31:03.549
24.0, 1267.0425759381615, -4537.514029089827, -682.7935349103063, -2487.1755867321044, 0.01600000075995922, -0.09600000455975533, 1.008000047877431, 0.0, 0.0, 0.0, 0.0, 0.0, 1.677029463549127E9, 0.0, 2023-02-21 19:31:03.549
25.0, 1387.8993129562587, -4685.610327435192, -722.3186675920151, -2398.270684985444, 0.01600000075995922, -0.09600000455975533, 1.008000047877431, 0.0, 0.0, 0.0, 0.0, 0.0, 1.67702946357313E9, 0.0, 2023-02-21 19:31:03.573
25.0, 1512.082690984942, -4859.958853519522, -742.0541196581908, -2447.599965400994, 0.01600000075995922, -0.09600000455975533, 1.008000047877431, 0.0, 0.0, 0.0, 0.0, 0.0, 1.67702946357313E9, 0.0, 2023-02-21 19:31:03.573
26.0, 1640.4023983646184, -5055.636029051151, -509.29957596585155, -2593.3064676746726, 0.01600000075995922, -0.09600000455975533, 1.008000047877431, 0.0, 0.0, 0.0, 0.0, 0.0, 1.67702946359713E9, 0.0, 2023-02-21 19:31:03.597
26.0, 1875.4532406297512, -5174.198337446433, -645.3552664038725, -2433.4070450691506, 0.01600000075995922, -0.09600000455975533, 1.008000047877431, 0.0, 0.0, 0.0, 0.0, 0.0, 1.67702946359713E9, 0.0, 2023-02-21 19:31:03.597
27.0, 1825.8341179676354, -5097.575267154258, -859.6552737648599, -2626.7523929784074, 0.01600000075995922, -0.09600000455975533, 1.008000047877431, 0.0, 0.0, 0.0, 0.0, 0.0, 1.677029463621174E9, 0.0, 2023-02-21 19:31:03.621
27.0, 1594.8934257538058, -5129.766456022859, -895.5246542398818, -2480.236202364322, 0.01600000075995922, -0.09600000455975533, 1.008000047877431, 0.0, 0.0, 0.0, 0.0, 0.0, 1.677029463621174E9, 0.0, 2023-02-21 19:31:03.621
28.0, 1691.2575579620898, -5251.758252677508, -1021.9164431924, -2518.9161176560447, 0.01600000075995922, -0.09600000455975533, 1.008000047877431, 0.0, 0.0, 0.0, 0.0, 0.0, 1.677029463645128E9, 0.0, 2023-02-21 19:31:03.645
28.0, 1619.6309940107167, -5369.112573387101, -885.1670013125986, -2759.8984412509017, 0.01600000075995922, -0.09600000455975533, 1.008000047877431, 0.0, 0.0, 0.0, 0.0, 0.0, 1.677029463645128E9, 0.0, 2023-02-21 19:31:03.645
29.0, 1824.8056454798207, -5452.312257751357, -700.7880635471083, -2984.7075674873777, 0.01600000075995922, -0.09600000455975533, 1.008000047877431, 0.0, 0.0, 0.0, 0.0, 0.0, 1.677029463669142E9, 0.0, 2023-02-21 19:31:03.669
29.0, 1750.3217979623005, -5522.293265722226, -664.0024075829424, -2966.6550704012625, 0.01600000075995922, -0.09600000455975533, 1.008000047877431, 0.0, 0.0, 0.0, 0.0, 0.0, 1.677029463669142E9, 0.0, 2023-02-21 19:31:03.669
30.0, 1879.0173652875237, -5646.671118548606, -725.3984752055258, -2890.7799801002257, 0.01600000075995922, -0.09600000455975533, 1.008000047877431, 0.0, 0.0, 0.0, 0.0, 0.0, 1.677029463693131E9, 0.0, 2023-02-21 19:31:03.693
30.0, 2008.2870072559454, -5826.143307572231, -747.2320111468434, -2939.077048128005, 0.01600000075995922, -0.09600000455975533, 1.008000047877431, 0.0, 0.0, 0.0, 0.0, 0.0, 1.677029463693131E9, 0.0, 2023-02-21 19:31:03.693
31.0, 2133.7419512695633, -6028.7392980218865, -512.8543508737348, -3074.854116019327, 0.01600000075995922, -0.09600000455975533, 1.008000047877431, 0.0, 0.0, 0.0, 0.0, 0.0, 1.677029463717139E9, 0.0, 2023-02-21 19:31:03.717
31.0, 2363.283920899965, -6134.686923866626, -622.5512264240533, -2924.1436276049353, 0.01600000075995922, -0.09600000455975533, 1.008000047877431, 0.0, 0.0, 0.0, 0.0, 0.0, 1.677029463717139E9, 0.0, 2023-02-21 19:31:03.717
32.0, 2319.3756254701875, -6052.106192945037, -394.0489489813335, -3124.41527023213, 0.01600000075995922, -0.09600000455975533, 1.008000047877431, 0.0, 0.0, 0.0, 0.0, 0.0, 1.677029463741137E9, 0.0, 2023-02-21 19:31:03.741
32.0, 2088.4386731563136, -6086.541321787052, -399.67749841464683, -2969.5030042175204, 0.01600000075995922, -0.09600000455975533, 1.008000047877431, 0.0, 0.0, 0.0, 0.0, 0.0, 1.677029463741137E9, 0.0, 2023-02-21 19:31:03.741
33.0, 2183.9688076744787, -6215.49307225924, -526.7125501595438, -3000.3179099024273, 0.01600000075995922, -0.09600000455975533, 1.008000047877431, 0.0, 0.0, 0.0, 0.0, 0.0, 1.677029463765134E9, 0.0, 2023-02-21 19:31:03.765
33.0, 2113.2622591122054, -6321.773549200036, -393.4449551384896, -2781.051315400284, 0.01600000075995922, -0.09600000455975533, 1.008000047877431, 0.0, 0.0, 0.0, 0.0, 0.0, 1.677029463765134E9, 0.0, 2023-02-21 19:31:03.765
34.0, 2327.487468474079, -6414.446400152054, -237.81088843243197, -2989.554477829952, 0.01600000075995922, -0.09600000455975533, 1.008000047877431, 0.0, 0.0, 0.0, 0.0, 0.0, 1.67702946378914E9, 0.0, 2023-02-21 19:31:03.789
34.0, 2239.8728322121315, -6499.521644344088, -128.90126182278618, -2960.510414774064, 0.01600000075995922, -0.09600000455975533, 1.008000047877431, 0.0, 0.0, 0.0, 0.0, 0.0, 1.67702946378914E9, 0.0, 2023-02-21 19:31:03.789
35.0, 2379.7058216053993, -6609.14559184527, -250.8612693278119, -2906.854070109781, 0.01600000075995922, -0.09600000455975533, 1.008000047877431, 0.0, 0.0, 0.0, 0.0, 0.0, 1.677029463813142E9, 0.0, 2023-02-21 19:31:03.813
35.0, 2497.5799884088337, -6799.111940144561, -264.3884874675423, -2955.0763401384465, 0.01600000075995922, -0.09600000455975533, 1.008000047877431, 0.0, 0.0, 0.0, 0.0, 0.0, 1.677029463813142E9, 0.0, 2023-02-21 19:31:03.813
36.0, 2617.7167946854606, -7014.386191444006, -496.4231004184112, -3073.2683984381147, 0.01600000075995922, -0.09600000455975533, 1.008000047877431, 0.0, 0.0, 0.0, 0.0, 0.0, 1.677029463837158E9, 0.0, 2023-02-21 19:31:03.837
36.0, 2859.308721973095, -7101.8175726081245, -627.4187062163837, -2937.8541008424945, 0.01600000075995922, -0.09600000455975533, 1.008000047877431, 0.0, 0.0, 0.0, 0.0, 0.0, 1.677029463837158E9, 0.0, 2023-02-21 19:31:03.837
37.0, 2813.4145396668464, -7018.230808598455, -397.8879562858492, -3135.193661904428, 0.01600000075995922, -0.09600000455975533, 1.008000047877431, 0.0, 0.0, 0.0, 0.0, 0.0, 1.677029463861112E9, 0.0, 2023-02-21 19:31:03.861
37.0, 2579.4632279886864, -7066.724221373908, -403.8306573154405, -2972.966151576489, 0.01600000075995922, -0.09600000455975533, 1.008000047877431, 0.0, 0.0, 0.0, 0.0, 0.0, 1.677029463861112E9, 0.0, 2023-02-21 19:31:03.861
38.0, 2667.573400994763, -7189.445298519917, -491.1853705304675, -3007.1694066212513, 0.01600000075995922, -0.09600000455975533, 1.008000047877431, 0.0, 0.0, 0.0, 0.0, 0.0, 1.677029463885115E9, 0.0, 2023-02-21 19:31:03.885
38.0, 2607.895817401819, -7292.614178697579, -431.35819093929604, -2786.4592107362114, 0.01600000075995922, -0.09600000455975533, 1.008000047877431, 0.0, 0.0, 0.0, 0.0, 0.0, 1.677029463885115E9, 0.0, 2023-02-21 19:31:03.885
39.0, 2817.4798109186813, -7389.060588704888, -233.37723703496158, -2997.1576944398694, 0.01600000075995922, -0.09600000455975533, 1.008000047877431, 0.0, 0.0, 0.0, 0.0, 0.0, 1.677029463909114E9, 0.0, 2023-02-21 19:31:03.909
39.0, 2724.217925723642, -7477.658818655182, -122.87815294414759, -2957.002388615627, 0.01600000075995922, -0.09600000455975533, 1.008000047877431, 0.0, 0.0, 0.0, 0.0, 0.0, 1.677029463909114E9, 0.0, 2023-02-21 19:31:03.909
40.0, 2871.0482679340057, -7580.962335231248, -254.6965367323719, -2916.488052395638, 0.01600000075995922, -0.09600000455975533, 1.008000047877431, 0.0, 0.0, 0.0, 0.0, 0.0, 1.677029463933123E9, 0.0, 2023-02-21 19:31:03.933
40.0, 2991.001819112804, -7765.775101391599, -281.6013770136051, -2961.415470563341, 0.01600000075995922, -0.09600000455975533, 1.008000047877431, 0.0, 0.0, 0.0, 0.0, 0.0, 1.677029463933123E9, 0.0, 2023-02-21 19:31:03.933
41.0, 3106.4151317453943, -7992.179294959176, -481.86553984088823, -3073.0514842406847, 0.01600000075995922, -0.09600000455975533, 1.008000047877431, 0.0, 0.0, 0.0, 0.0, 0.0, 1.677029463957106E9, 0.0, 2023-02-21 19:31:03.957
41.0, 2866.7212036852725, -8065.761826587375, -619.4770286604762, -2933.8000492905267, 0.01600000075995922, -0.09600000455975533, 1.008000047877431, 0.0, 0.0, 0.0, 0.0, 0.0, 1.677029463957106E9, 0.0, 2023-02-21 19:31:03.957
42.0, 2809.996271107346, -7991.977340361569, -410.433450687211, -3139.2514533563517, 0.01600000075995922, -0.09600000455975533, 1.008000047877431, 0.0, 0.0, 0.0, 0.0, 0.0, 1.677029463981127E9, 0.0, 2023-02-21 19:31:03.981
42.0, 2582.7692995495163, -8042.707213310525, -414.027494544629, -2976.444258535281, 0.01600000075995922, -0.09600000455975533, 1.008000047877431, 0.0, 0.0, 0.0, 0.0, 0.0, 1.677029463981127E9, 0.0, 2023-02-21 19:31:03.981
43.0, 2669.342373673804, -8173.364358162507, -467.38277726247907, -3002.973238870967, 0.01600000075995922, -0.09600000455975533, 1.008000047877431, 0.0, 0.0, 0.0, 0.0, 0.0, 1.677029464005114E9, 0.0, 2023-02-21 19:31:04.005
43.0, 2621.176202144474, -8258.192768957466, -442.71813705470413, -2791.6801110743545, 0.01600000075995922, -0.09600000455975533, 1.008000047877431, 0.0, 0.0, 0.0, 0.0, 0.0, 1.677029464005114E9, 0.0, 2023-02-21 19:31:04.005
44.0, 2819.6975715924054, -8369.75959448563, -248.59302000468597, -3005.4079137421213, 0.01600000075995922, -0.09600000455975533, 1.008000047877431, 0.0, 0.0, 0.0, 0.0, 0.0, 1.677029464029118E9, 0.0, 2023-02-21 19:31:04.029
44.0, 2721.588776054792, -8470.845350387972, -99.19897637469694, -2944.324127765838, 0.01600000075995922, -0.09600000455975533, 1.008000047877431, 0.0, 0.0, 0.0, 0.0, 0.0, 1.677029464029118E9, 0.0, 2023-02-21 19:31:04.029
45.0, 2875.1135391858406, -8556.118809277657, -263.06456288322806, -2910.69868726423, 0.01600000075995922, -0.09600000455975533, 1.008000047877431, 0.0, 0.0, 0.0, 0.0, 0.0, 1.677029464053144E9, 0.0, 2023-02-21 19:31:04.053
45.0, 2996.3498760494404, -8749.193014440127, -298.5150745632127, -2957.4885756098665, 0.01600000075995922, -0.09600000455975533, 1.008000047877431, 0.0, 0.0, 0.0, 0.0, 0.0, 1.677029464053144E9, 0.0, 2023-02-21 19:31:04.053
46.0, 3106.067321049515, -8981.659585835878, -475.6404763646424, -3064.341257243883, 0.01600000075995922, -0.09600000455975533, 1.008000047877431, 0.0, 0.0, 0.0, 0.0, 0.0, 1.677029464077106E9, 0.0, 2023-02-21 19:31:04.077
46.0, 2862.3455207371153, -9063.806488362607, -620.7916034949012, -2938.8676137304865, 0.01600000075995922, -0.09600000455975533, 1.008000047877431, 0.0, 0.0, 0.0, 0.0, 0.0, 1.677029464077106E9, 0.0, 2023-02-21 19:31:04.077
47.0, 2817.120780522935, -8977.291382687632, -414.908240984194, -3143.844050501939, 0.01600000075995922, -0.09600000455975533, 1.008000047877431, 0.0, 0.0, 0.0, 0.0, 0.0, 1.677029464101122E9, 0.0, 2023-02-21 19:31:04.101
47.0, 2585.4096689182334, -9025.208850869909, -420.5293106175959, -2975.793515942991, 0.01600000075995922, -0.09600000455975533, 1.008000047877431, 0.0, 0.0, 0.0, 0.0, 0.0, 1.677029464101122E9, 0.0, 2023-02-21 19:31:04.101
48.0, 2663.9606576375663, -9169.920539755374, -456.2734044441022, -2982.2354936166666, 0.01600000075995922, -0.09600000455975533, 1.008000047877431, 0.0, 0.0, 0.0, 0.0, 0.0, 1.677029464125121E9, 0.0, 2023-02-21 19:31:04.125
48.0, 2619.8672371599823, -9239.909027526155, -446.856336355675, -2803.9357632291503, 0.01600000075995922, -0.09600000455975533, 1.008000047877431, 0.0, 0.0, 0.0, 0.0, 0.0, 1.677029464125121E9, 0.0, 2023-02-21 19:31:04.125
49.0, 2819.5666750939563, -9346.55414471263, -269.33263520896435, -3006.582242328208, 0.01600000075995922, -0.09600000455975533, 1.008000047877431, 0.0, 0.0, 0.0, 0.0, 0.0, 1.677029464149123E9, 0.0, 2023-02-21 19:31:04.149
49.0, 2719.6028891783208, -9453.186172249261, -67.81934579648077, -2929.2411112445407, 0.01600000075995922, -0.09600000455975533, 1.008000047877431, 0.0, 0.0, 0.0, 0.0, 0.0, 1.677029464149123E9, 0.0, 2023-02-21 19:31:04.149
50.0, 2878.1166788502596, -9537.977184044663, -282.24463980598375, -2920.6056822468527, 0.01600000075995922, -0.09600000455975533, 1.008000047877431, 0.0, 0.0, 0.0, 0.0, 0.0, 1.677029464173137E9, 0.0, 2023-02-21 19:31:04.173
50.0, 2999.3156167143025, -9727.057176054455, -287.2748052463867, -2958.255255100783, 0.01600000075995922, -0.09600000455975533, 1.008000047877431, 0.0, 0.0, 0.0, 0.0, 0.0, 1.677029464173137E9, 0.0, 2023-02-21 19:31:04.173
51.0, 3098.1611725431867, -9965.436529280152, -479.55802156822756, -3068.739379591774, 0.01600000075995922, -0.09600000455975533, 1.008000047877431, 0.0, 0.0, 0.0, 0.0, 0.0, 1.67702946419713E9, 0.0, 2023-02-21 19:31:04.197
51.0, 2866.8446203838103, -10028.244409136008, -613.2126962346956, -2931.152200121898, 0.01600000075995922, -0.09600000455975533, 1.008000047877431, 0.0, 0.0, 0.0, 0.0, 0.0, 1.67702946419713E9, 0.0, 2023-02-21 19:31:04.197
52.0, 2819.173985598609, -9951.714836342726, -434.675482199993, -3149.850329830777, 0.01600000075995922, -0.09600000455975533, 1.008000047877431, 0.0, 0.0, 0.0, 0.0, 0.0, 1.67702946422111E9, 0.0, 2023-02-21 19:31:04.221
52.0, 2586.0117928110994, -10016.106563829817, -418.69301973935217, -2969.5553628169, 0.01600000075995922, -0.09600000455975533, 1.008000047877431, 0.0, 0.0, 0.0, 0.0, 0.0, 1.67702946422111E9, 0.0, 2023-02-21 19:31:04.221
53.0, 2662.5095764547586, -10143.192104224116, -449.2648319271393, -2983.6379561000504, 0.01600000075995922, -0.09600000455975533, 1.008000047877431, 0.0, 0.0, 0.0, 0.0, 0.0, 1.67702946424515E9, 0.0, 2023-02-21 19:31:04.245
53.0, 2621.5988108394668, -10214.93834497407, -457.2308188327588, -2799.245928684715, 0.01600000075995922, -0.09600000455975533, 1.008000047877431, 0.0, 0.0, 0.0, 0.0, 0.0, 1.67702946424515E9, 0.0, 2023-02-21 19:31:04.245
54.0, 2820.741003680043, -10337.418198572937, -288.9558902764693, -3007.0572096225806, 0.01600000075995922, -0.09600000455975533, 1.008000047877431, 0.0, 0.0, 0.0, 0.0, 0.0, 1.677029464269143E9, 0.0, 2023-02-21 19:31:04.269
54.0, 2710.76176568307, -10448.519406556617, -526.347909913864, -2920.650561046321, 0.01600000075995922, -0.09600000455975533, 1.008000047877431, 0.0, 0.0, 0.0, 0.0, 0.0, 1.677029464269143E9, 0.0, 2023-02-21 19:31:04.269
55.0, 2880.992661916185, -10499.52042225236, -302.3840010673739, -2930.806259375997, 0.01600000075995922, -0.09600000455975533, 1.008000047877431, 0.0, 0.0, 0.0, 0.0, 0.0, 1.67702946429312E9, 0.0, 2023-02-21 19:31:04.293
55.0, 3004.6599337509833, -10702.542761296965, -292.14976483862847, -2958.350622549653, 0.01600000075995922, -0.09600000455975533, 1.008000047877431, 0.0, 0.0, 0.0, 0.0, 0.0, 1.67702946429312E9, 0.0, 2023-02-21 19:31:04.293
56.0, 3098.77451613592, -10470.683923644014, -468.7740200459957, -3048.0259436871856, 0.01600000075995922, -0.09600000455975533, 1.008000047877431, 0.0, 0.0, 0.0, 0.0, 0.0, 1.677029464317125E9, 0.0, 2023-02-21 19:31:04.317
56.0, 2866.160218691919, -10510.581176371314, -620.4138735993765, -2951.3233505329117, 0.01600000075995922, -0.09600000455975533, 1.008000047877431, 0.0, 0.0, 0.0, 0.0, 0.0, 1.677029464317125E9, 0.0, 2023-02-21 19:31:04.317
57.0, 2823.3252745494246, -10433.756151481532, -449.71174997184426, -3149.826020481065, 0.01600000075995922, -0.09600000455975533, 1.008000047877431, 0.0, 0.0, 0.0, 0.0, 0.0, 1.677029464341126E9, 0.0, 2023-02-21 19:31:04.341
57.0, 3064.5263822916895, -10526.301845835056, -393.9030928830616, -2946.7887218366377, 0.01600000075995922, -0.09600000455975533, 1.008000047877431, 0.0, 0.0, 0.0, 0.0, 0.0, 1.677029464341126E9, 0.0, 2023-02-21 19:31:04.341
58.0, 3156.2231193552725, -10615.232926881406, -446.40941831097007, -2992.207936848514, 0.01600000075995922, -0.09600000455975533, 1.008000047877431, 0.0, 0.0, 0.0, 0.0, 0.0, 1.677029464365109E9, 0.0, 2023-02-21 19:31:04.365
58.0, 3123.315739645157, -10684.742707457859, -479.7506264159456, -2825.8010883200914, 0.01600000075995922, -0.09600000455975533, 1.008000047877431, 0.0, 0.0, 0.0, 0.0, 0.0, 1.677029464365109E9, 0.0, 2023-02-21 19:31:04.365
59.0, 3307.165481566917, -10844.543022714555, -280.16525543062016, -2986.5083293160424, 0.01600000075995922, -0.09600000455975533, 1.008000047877431, 0.0, 0.0, 0.0, 0.0, 0.0, 1.677029464389114E9, 0.0, 2023-02-21 19:31:04.389
59.0, 3188.251622575801, -10949.518274570815, -495.25251173228025, -2913.438163981773, 0.01600000075995922, -0.09600000455975533, 1.008000047877431, 0.0, 0.0, 0.0, 0.0, 0.0, 1.677029464389114E9, 0.0, 2023-02-21 19:31:04.389
60.0, 3384.2990482030436, -10948.832002928946, -332.4247474614531, -2966.228721806314, 0.01600000075995922, -0.09600000455975533, 1.008000047877431, 0.0, 0.0, 0.0, 0.0, 0.0, 1.67702946441313E9, 0.0, 2023-02-21 19:31:04.413
60.0, 3490.1307371491566, -10714.624508103821, -302.0922888708301, -2960.1682139281183, 0.01600000075995922, -0.09600000455975533, 1.008000047877431, 0.0, 0.0, 0.0, 0.0, 0.0, 1.67702946441313E9, 0.0, 2023-02-21 19:31:04.413
61.0, 3571.017293390818, -10515.456135963555, -431.7060016351752, -3010.249214234762, 0.01600000075995922, -0.09600000455975533, 1.008000047877431, 0.0, 0.0, 0.0, 0.0, 0.0, 1.677029464437121E9, 0.0, 2023-02-21 19:31:04.437
61.0, 3367.166566506028, -10468.350226071663, -632.7349740033969, -2982.207444366999, 0.01600000075995922, -0.09600000455975533, 1.008000047877431, 0.0, 0.0, 0.0, 0.0, 0.0, 1.677029464437121E9, 0.0, 2023-02-21 19:31:04.437
62.0, 3316.1562010603957, -10426.837336563505, -455.2000531568192, -3152.0363013548777, 0.01600000075995922, -0.09600000455975533, 1.008000047877431, 0.0, 0.0, 0.0, 0.0, 0.0, 1.677029464461127E9, 0.0, 2023-02-21 19:31:04.461
62.0, 3547.3119375216775, -10558.09099545842, -380.4787219921127, -2928.5567095526494, 0.01600000075995922, -0.09600000455975533, 1.008000047877431, 0.0, 0.0, 0.0, 0.0, 0.0, 1.677029464461127E9, 0.0, 2023-02-21 19:31:04.461
63.0, 3648.5603790720925, -10609.402422850486, -434.1182371065952, -2993.3336467351764, 0.01600000075995922, -0.09600000455975533, 1.008000047877431, 0.0, 0.0, 0.0, 0.0, 0.0, 1.677029464485113E9, 0.0, 2023-02-21 19:31:04.485
63.0, 3615.230390666984, -10674.394404280465, -488.2458091652952, -2831.8634661482647, 0.01600000075995922, -0.09600000455975533, 1.008000047877431, 0.0, 0.0, 0.0, 0.0, 0.0, 1.677029464485113E9, 0.0, 2023-02-21 19:31:04.485
64.0, 3800.9687820663676, -10842.901206634007, -286.15096530970186, -2989.2234966838732, 0.01600000075995922, -0.09600000455975533, 1.008000047877431, 0.0, 0.0, 0.0, 0.0, 0.0, 1.677029464509117E9, 0.0, 2023-02-21 19:31:04.509
64.0, 3673.0941227814183, -10947.655804392882, -476.8428542003967, -2901.6387796215713, 0.01600000075995922, -0.09600000455975533, 1.008000047877431, 0.0, 0.0, 0.0, 0.0, 0.0, 1.677029464509117E9, 0.0, 2023-02-21 19:31:04.509
65.0, 3877.993891603779, -10938.49491945142, -337.42312375223264, -2970.4772481559776, 0.01600000075995922, -0.09600000455975533, 1.008000047877431, 0.0, 0.0, 0.0, 0.0, 0.0, 1.67702946453314E9, 0.0, 2023-02-21 19:31:04.533
65.0, 3981.7574158743955, -10702.724146444816, -308.4445089455694, -2967.3563016429543, 0.01600000075995922, -0.09600000455975533, 1.008000047877431, 0.0, 0.0, 0.0, 0.0, 0.0, 1.67702946453314E9, 0.0, 2023-02-21 19:31:04.533
66.0, 4064.9028716892935, -10486.165239510592, -426.0082640526816, -3021.285659004003, 0.01600000075995922, -0.09600000455975533, 1.008000047877431, 0.0, 0.0, 0.0, 0.0, 0.0, 1.67702946455712E9, 0.0, 2023-02-21 19:31:04.557
66.0, 3853.7219408913516, -10475.45977588743, -630.5415226793848, -2970.6361939040944, 0.01600000075995922, -0.09600000455975533, 1.008000047877431, 0.0, 0.0, 0.0, 0.0, 0.0, 1.67702946455712E9, 0.0, 2023-02-21 19:31:04.557
67.0, 3807.102217993699, -10418.474920262583, -457.09431248437613, -3163.6898296168074, 0.01600000075995922, -0.09600000455975533, 1.008000047877431, 0.0, 0.0, 0.0, 0.0, 0.0, 1.677029464581139E9, 0.0, 2023-02-21 19:31:04.581
67.0, 4050.812798606232, -10519.446609216277, -410.5194683861919, -2962.200849554036, 0.01600000075995922, -0.09600000455975533, 1.008000047877431, 0.0, 0.0, 0.0, 0.0, 0.0, 1.677029464581139E9, 0.0, 2023-02-21 19:31:04.581
68.0, 4124.614114381839, -10644.232111137826, -406.996482627932, -2970.482858005911, 0.01600000075995922, -0.09600000455975533, 1.008000047877431, 0.0, 0.0, 0.0, 0.0, 0.0, 1.677029464605134E9, 0.0, 2023-02-21 19:31:04.605
68.0, 4098.449774291832, -10693.329517756123, -492.1502647190355, -2818.8074754029512, 0.01600000075995922, -0.09600000455975533, 1.008000047877431, 0.0, 0.0, 0.0, 0.0, 0.0, 1.677029464605134E9, 0.0, 2023-02-21 19:31:04.605
69.0, 4309.8177000875585, -10808.131356745958, -320.3673100043088, -3022.4562476901338, 0.01600000075995922, -0.09600000455975533, 1.008000047877431, 0.0, 0.0, 0.0, 0.0, 0.0, 1.6770294646291E9, 0.0, 2023-02-21 19:31:04.629
69.0, 4170.102517542895, -10956.855958283879, -476.44642480509356, -2907.611399850808, 0.01600000075995922, -0.09600000455975533, 1.008000047877431, 0.0, 0.0, 0.0, 0.0, 0.0, 1.6770294646291E9, 0.0, 2023-02-21 19:31:04.629
70.0, 4338.340047099628, -11074.920859985054, -272.45732162194327, -2869.3746627038345, 0.01600000075995922, -0.09600000455975533, 1.008000047877431, 0.0, 0.0, 0.0, 0.0, 0.0, 1.677029464653139E9, 0.0, 2023-02-21 19:31:04.653
70.0, 4475.654213872738, -11200.340274949092, -336.74994176020846, -2974.331215060316, 0.01600000075995922, -0.09600000455975533, 1.008000047877431, 0.0, 0.0, 0.0, 0.0, 0.0, 1.677029464653139E9, 0.0, 2023-02-21 19:31:04.653
71.0, 4616.180954707786, -11303.163214380853, -536.9505262882449, -3176.730860762298, 0.01600000075995922, -0.09600000455975533, 1.008000047877431, 0.0, 0.0, 0.0, 0.0, 0.0, 1.677029464677131E9, 0.0, 2023-02-21 19:31:04.677
