Sample Index, EXG Channel 0, EXG Channel 1, EXG Channel 2, EXG Channel 3, Accel Channel 0, Accel Channel 1, Accel Channel 2, Other, Other, Other, Other, Other, Timestamp, Other, Timestamp (Formatted)
4.0, -1.1107502868399024, -2.4384147711098194, 15.655221214517951, 10.135128879919648, 0.0, 0.0, 0.0, 0.0, 0.0, 0.0, 0.0, 0.0, 1.66977168129905E9, 0.0, 2022-11-29 19:28:01.299
4.0, 12.147195056080818, -11.380515565164387, 13.759091936983168, -8.732666396535933, 0.0, 0.0, 0.0, 0.0, 0.0, 0.0, 0.0, 0.0, 1.66977168129905E9, 0.0, 2022-11-29 19:28:01.299
5.0, 7.9098884062841535, -3.6800615563988686, 1.088310887105763, -6.952474017627537, 0.0, 0.0, 0.0, 0.0, 0.0, 0.0, 0.0, 0.0, 1.669771681323097E9, 0.0, 2022-11-29 19:28:01.323
5.0, 7.090850315988064, 2.5206925701349974, -8.721446696668863, 10.707333573140204, 0.0, 0.0, 0.0, 0.0, 0.0, 0.0, 0.0, 0.0, 1.669771681323097E9, 0.0, 2022-11-29 19:28:01.323
6.0, 1.3014851845800877, -13.145748344250023, 2.7563062673434615, 3.6800615563988686, 0.0, 0.0, 0.0, 0.0, 0.0, 0.0, 0.0, 0.0, 1.669771681347051E9, 0.0, 2022-11-29 19:28:01.347
6.0, 4.989026540890336, -12.992412446066737, 0.7405001912266016, 0.45626779459416866, 0.0, 0.0, 0.0, 0.0, 0.0, 0.0, 0.0, 0.0, 1.669771681347051E9, 0.0, 2022-11-29 19:28:01.347
7.0, -1.0284724878147244, -13.598276238888502, 4.356983448378742, -1.7876721788197756, 0.0, 0.0, 0.0, 0.0, 0.0, 0.0, 0.0, 0.0, 1.669771681371048E9, 0.0, 2022-11-29 19:28:01.371
7.0, -7.66305500920862, -17.828103088773787, -5.703347432427108, -1.0696113873273134, 0.0, 0.0, 0.0, 0.0, 0.0, 0.0, 0.0, 0.0, 1.669771681371048E9, 0.0, 2022-11-29 19:28:01.371
8.0, 1.6231165807694197, -5.321877636946738, 3.739899955689907, -5.467733735218644, 0.0, 0.0, 0.0, 0.0, 0.0, 0.0, 0.0, 0.0, 1.669771681395019E9, 0.0, 2022-11-29 19:28:01.395
8.0, -1.8400307781994343, -8.261439002119005, -7.580777210183442, -12.031258157454431, 0.0, 0.0, 0.0, 0.0, 0.0, 0.0, 0.0, 0.0, 1.669771681395019E9, 0.0, 2022-11-29 19:28:01.395
9.0, 2.730126967653632, -3.6838014563545585, -2.5880107693374157, -0.4712273944169283, 0.0, 0.0, 0.0, 0.0, 0.0, 0.0, 0.0, 0.0, 1.669771681419045E9, 0.0, 2022-11-29 19:28:01.419
9.0, -8.45965369977057, -11.960200058296323, -13.67681413795799, -15.580423215404153, 0.0, 0.0, 0.0, 0.0, 0.0, 0.0, 0.0, 0.0, 1.669771681419045E9, 0.0, 2022-11-29 19:28:01.419
10.0, -18.677060378715396, -22.405740634538233, -20.797583653591573, -22.716152330860496, 0.0, 0.0, 1.0240000486373901, 0.0, 0.0, 0.0, 0.0, 0.0, 1.66977168144305E9, 0.0, 2022-11-29 19:28:01.443
10.0, -8.44469409994781, -10.340823377482593, -4.095190451480448, -23.254697924479842, 0.0, 0.0, 1.0240000486373901, 0.0, 0.0, 0.0, 0.0, 0.0, 1.66977168144305E9, 0.0, 2022-11-29 19:28:01.443
11.0, -13.31404384225607, -26.452312386594713, -12.132235456258059, -31.101008031517267, 0.0, 0.01600000075995922, 1.0240000486373901, 0.0, 0.0, 0.0, 0.0, 0.0, 1.669771681467044E9, 0.0, 2022-11-29 19:28:01.467
11.0, -16.47051940485835, -38.782762540504336, -26.10076179075986, -27.641600572504103, 0.0, 0.01600000075995922, 1.0240000486373901, 0.0, 0.0, 0.0, 0.0, 0.0, 1.669771681467044E9, 0.0, 2022-11-29 19:28:01.467
12.0, -21.79613694176078, -28.97300495672971, -12.794197748415172, -36.9801307618618, 0.01600000075995922, 0.01600000075995922, 1.0240000486373901, 0.0, 0.0, 0.0, 0.0, 0.0, 1.669771681491039E9, 0.0, 2022-11-29 19:28:01.491
12.0, -20.707826054655015, -33.644140001386404, -38.782762540504336, -43.47633698489517, 0.01600000075995922, 0.01600000075995922, 1.0240000486373901, 0.0, 0.0, 0.0, 0.0, 0.0, 1.669771681491039E9, 0.0, 2022-11-29 19:28:01.491
13.0, -14.200400131754577, -32.428672515787184, -36.411665968596935, -39.201631335541606, 0.01600000075995922, 0.01600000075995922, 1.0240000486373901, 0.0, 0.0, 0.0, 0.0, 0.0, 1.669771681515064E9, 0.0, 2022-11-29 19:28:01.515
13.0, -24.731958406977355, -40.009449725970626, -31.235644429922104, -51.55078098922968, 0.01600000075995922, 0.01600000075995922, 1.0240000486373901, 0.0, 0.0, 0.0, 0.0, 0.0, 1.669771681515064E9, 0.0, 2022-11-29 19:28:01.515
14.0, -22.416960334405303, -43.74934968166053, -25.853928393684328, -56.60712572932243, 0.01600000075995922, 0.01600000075995922, 1.0240000486373901, 0.0, 0.0, 0.0, 0.0, 0.0, 1.669771681539045E9, 0.0, 2022-11-29 19:28:01.539
14.0, -36.018976473249495, -46.22516345232725, -26.699145783670247, -41.651265806518495, 0.01600000075995922, 0.01600000075995922, 1.0240000486373901, 0.0, 0.0, 0.0, 0.0, 0.0, 1.669771681539045E9, 0.0, 2022-11-29 19:28:01.539
15.0, -26.49719118606299, -47.89315883256495, -41.699884505942464, -51.371265791356564, 0.01600000075995922, 0.01600000075995922, 1.0240000486373901, 0.0, 0.0, 0.0, 0.0, 0.0, 1.669771681563015E9, 0.0, 2022-11-29 19:28:01.563
15.0, -31.703131924383342, -32.024763320572674, -39.7214774293825, -49.00390911940485, 0.01600000075995922, 0.01600000075995922, 1.0240000486373901, 0.0, 0.0, 0.0, 0.0, 0.0, 1.669771681563015E9, 0.0, 2022-11-29 19:28:01.563
16.0, -35.54774907883257, -41.87565980385989, -33.87227389868349, -53.91065786127001, 0.01600000075995922, 0.01600000075995922, 1.0240000486373901, 0.0, 0.0, 0.0, 0.0, 0.0, 1.669771681587023E9, 0.0, 2022-11-29 19:28:01.587
16.0, -31.871427422389388, -47.36209303885698, -47.99787603132427, -57.44860321935266, 0.01600000075995922, 0.01600000075995922, 1.0240000486373901, 0.0, 0.0, 0.0, 0.0, 0.0, 1.669771681587023E9, 0.0, 2022-11-29 19:28:01.587
17.0, -34.17894569505006, -45.10693336557597, -33.79747589956969, -49.09366671834141, 0.01600000075995922, 0.01600000075995922, 1.0240000486373901, 0.0, 0.0, 0.0, 0.0, 0.0, 1.669771681611046E9, 0.0, 2022-11-29 19:28:01.611
17.0, -35.671165777370334, -49.340500115416944, -30.824255434796214, -44.38139277417213, 0.01600000075995922, 0.01600000075995922, 1.0240000486373901, 0.0, 0.0, 0.0, 0.0, 0.0, 1.669771681611046E9, 0.0, 2022-11-29 19:28:01.611
18.0, -35.40189298056066, -44.34025387465954, -36.65475946571678, -64.10188524052501, 0.01600000075995922, 0.01600000075995922, 1.0240000486373901, 0.0, 0.0, 0.0, 0.0, 0.0, 1.66977168163507E9, 0.0, 2022-11-29 19:28:01.635
18.0, -30.502624038606882, -50.058560906909406, -34.040569396689534, -56.41265093162656, 0.01600000075995922, 0.01600000075995922, 1.0240000486373901, 0.0, 0.0, 0.0, 0.0, 0.0, 1.66977168163507E9, 0.0, 2022-11-29 19:28:01.635
19.0, -24.10365521442145, -51.47972289007157, -36.026456273160875, -49.96506340801716, 0.01600000075995922, 0.01600000075995922, 1.0240000486373901, 0.0, 0.0, 0.0, 0.0, 0.0, 1.669771681659088E9, 0.0, 2022-11-29 19:28:01.659
19.0, -25.865148093551397, -40.93320501502603, -37.989903749898076, -48.3569064270705, 0.01600000075995922, 0.01600000075995922, 1.0240000486373901, 0.0, 0.0, 0.0, 0.0, 0.0, 1.669771681659088E9, 0.0, 2022-11-29 19:28:01.659
20.0, -27.43590607494116, -52.29128118045628, -40.37595992162824, -51.64801838807762, 0.01600000075995922, 0.01600000075995922, 1.008000047877431, 0.0, 0.0, 0.0, 0.0, 0.0, 1.669771681683011E9, 0.0, 2022-11-29 19:28:01.683
20.0, -28.819669058546424, -52.089326582849026, -40.491896820254624, -44.893759068101645, 0.01600000075995922, 0.01600000075995922, 1.008000047877431, 0.0, 0.0, 0.0, 0.0, 0.0, 1.669771681683011E9, 0.0, 2022-11-29 19:28:01.683
21.0, -22.832089229486883, -31.961185021325946, -30.270750241354108, -54.66985755227506, 0.01600000075995922, 0.03200000151991844, 1.008000047877431, 0.0, 0.0, 0.0, 0.0, 0.0, 1.669771681707069E9, 0.0, 2022-11-29 19:28:01.707
21.0, -25.595875296741724, -40.97808381449431, -39.53448243159801, -70.01466707047075, 0.01600000075995922, 0.03200000151991844, 1.008000047877431, 0.0, 0.0, 0.0, 0.0, 0.0, 1.669771681707069E9, 0.0, 2022-11-29 19:28:01.707
22.0, -31.093528231605887, -51.38248549122363, -38.65934584196657, -56.132158434949815, 0.01600000075995922, 0.03200000151991844, 1.008000047877431, 0.0, 0.0, 0.0, 0.0, 0.0, 1.669771681731069E9, 0.0, 2022-11-29 19:28:01.731
22.0, -30.323108840733767, -50.937437396496534, -34.059268896467984, -51.367525891400874, 0.01600000075995922, 0.03200000151991844, 1.008000047877431, 0.0, 0.0, 0.0, 0.0, 0.0, 1.669771681731069E9, 0.0, 2022-11-29 19:28:01.731
23.0, -31.7928895233199, -47.313474339433014, -42.829334292560816, -68.19707569200546, 0.01600000075995922, 0.03200000151991844, 1.008000047877431, 0.0, 0.0, 0.0, 0.0, 0.0, 1.669771681755053E9, 0.0, 2022-11-29 19:28:01.755
23.0, -27.83981527015567, -41.14263941254467, -53.04300107154995, -48.551381224766374, 0.01600000075995922, 0.03200000151991844, 1.008000047877431, 0.0, 0.0, 0.0, 0.0, 0.0, 1.669771681755053E9, 0.0, 2022-11-29 19:28:01.755
24.0, -24.91147360485047, -41.13515961263329, -42.69843779411167, -55.90028463769704, 0.01600000075995922, 0.03200000151991844, 1.008000047877431, 0.0, 0.0, 0.0, 0.0, 0.0, 1.669771681779048E9, 0.0, 2022-11-29 19:28:01.779
24.0, -33.38982680439949, -48.99642931949347, -32.772743311710656, -58.08064631186426, 0.01600000075995922, 0.03200000151991844, 1.008000047877431, 0.0, 0.0, 0.0, 0.0, 0.0, 1.669771681779048E9, 0.0, 2022-11-29 19:28:01.779
25.0, -16.90808769967407, -45.308887963183224, -43.54739508405328, -55.357999144122005, 0.01600000075995922, 0.03200000151991844, 1.008000047877431, 0.0, 0.0, 0.0, 0.0, 0.0, 1.669771681803045E9, 0.0, 2022-11-29 19:28:01.803
25.0, -15.961893010884523, -50.092220006510615, -30.708318536169827, -63.361385049298406, 0.01600000075995922, 0.03200000151991844, 1.008000047877431, 0.0, 0.0, 0.0, 0.0, 0.0, 1.669771681803045E9, 0.0, 2022-11-29 19:28:01.803
26.0, -21.594182344153523, -48.23722962848842, -33.07193530816585, -53.41325116716325, 0.01600000075995922, 0.03200000151991844, 1.008000047877431, 0.0, 0.0, 0.0, 0.0, 0.0, 1.669771681827042E9, 0.0, 2022-11-29 19:28:01.827
26.0, -11.361816065385938, -61.86916496697813, -32.406233116053045, -53.360892567783594, 0.01600000075995922, 0.03200000151991844, 1.008000047877431, 0.0, 0.0, 0.0, 0.0, 0.0, 1.669771681827042E9, 0.0, 2022-11-29 19:28:01.827
27.0, -13.931127334944904, -53.15145817026496, -44.826440868899226, -55.55621384177357, 0.01600000075995922, 0.03200000151991844, 1.008000047877431, 0.0, 0.0, 0.0, 0.0, 0.0, 1.669771681851035E9, 0.0, 2022-11-29 19:28:01.851
27.0, -7.719153508543968, -35.08026158437133, -33.958291597664356, -40.56295491941273, 0.01600000075995922, 0.03200000151991844, 1.008000047877431, 0.0, 0.0, 0.0, 0.0, 0.0, 1.669771681851035E9, 0.0, 2022-11-29 19:28:01.851
28.0, -23.112581726163626, -37.13346666004509, -29.661146548576653, -57.28404762130231, 0.01600000075995922, 0.03200000151991844, 1.008000047877431, 0.0, 0.0, 0.0, 0.0, 0.0, 1.669771681875038E9, 0.0, 2022-11-29 19:28:01.875
28.0, -21.036937250755727, -42.25712959934026, -18.56860328000039, -46.831027245149016, 0.01600000075995922, 0.03200000151991844, 1.008000047877431, 0.0, 0.0, 0.0, 0.0, 0.0, 1.669771681875038E9, 0.0, 2022-11-29 19:28:01.875
29.0, -14.278938030824065, -28.464378562755883, -12.685740649700165, -36.30694876983762, 0.01600000075995922, 0.03200000151991844, 1.008000047877431, 0.0, 0.0, 0.0, 0.0, 0.0, 1.669771681899005E9, 0.0, 2022-11-29 19:28:01.899
29.0, -4.8917891420423985, -33.02705650869757, -9.847156583331525, -37.683231953531504, 0.01600000075995922, 0.03200000151991844, 1.008000047877431, 0.0, 0.0, 0.0, 0.0, 0.0, 1.669771681899005E9, 0.0, 2022-11-29 19:28:01.899
30.0, 10.258545578457415, -14.05828393343836, -3.268672561272979, -27.914613269269466, 0.01600000075995922, 0.03200000151991844, 1.008000047877431, 0.0, 0.0, 0.0, 0.0, 0.0, 1.669771681923095E9, 0.0, 2022-11-29 19:28:01.923
30.0, 2.41223547141999, -13.415021141059697, -3.6464024567976594, -24.799276606179774, 0.01600000075995922, 0.03200000151991844, 1.008000047877431, 0.0, 0.0, 0.0, 0.0, 0.0, 1.669771681923095E9, 0.0, 2022-11-29 19:28:01.923
31.0, 0.0, -14.88106192369014, -10.206186979077756, -23.37063482310623, 0.01600000075995922, 0.03200000151991844, 1.008000047877431, 0.0, 0.0, 0.0, 0.0, 0.0, 1.669771681947046E9, 0.0, 2022-11-29 19:28:01.947
31.0, 13.916167735122144, -9.525525187142193, -3.3172912606969476, -13.886248535476625, 0.01600000075995922, 0.03200000151991844, 1.008000047877431, 0.0, 0.0, 0.0, 0.0, 0.0, 1.669771681947046E9, 0.0, 2022-11-29 19:28:01.947
32.0, 9.518045387230814, -13.781531336717308, 5.153582138940692, -18.347949182614684, 0.0, 0.03200000151991844, 1.008000047877431, 0.0, 0.0, 0.0, 0.0, 0.0, 1.669771681971039E9, 0.0, 2022-11-29 19:28:01.971
32.0, 5.961400529369712, -1.5782377813011408, 17.551350492052734, -27.147933778353035, 0.0, 0.03200000151991844, 1.008000047877431, 0.0, 0.0, 0.0, 0.0, 0.0, 1.669771681971039E9, 0.0, 2022-11-29 19:28:01.971
33.0, 5.434074635617435, -14.667887626215816, 7.715413608588278, -19.600815667770803, 0.0, 0.03200000151991844, 1.008000047877431, 0.0, 0.0, 0.0, 0.0, 0.0, 1.669771681995048E9, 0.0, 2022-11-29 19:28:01.995
33.0, 14.06950363330543, -11.077583668753505, -9.712520184926689, -15.011958422139287, 0.0, 0.03200000151991844, 1.008000047877431, 0.0, 0.0, 0.0, 0.0, 0.0, 1.669771681995048E9, 0.0, 2022-11-29 19:28:01.995
34.0, 28.16892646625638, -20.8985609523952, -7.730373208411038, -1.9634474767372012, 0.0, 0.03200000151991844, 1.008000047877431, 0.0, 0.0, 0.0, 0.0, 0.0, 1.669771682019049E9, 0.0, 2022-11-29 19:28:02.019
34.0, 22.615175032056868, -23.060223126783967, 7.008572516962886, -14.581869927234948, 0.0, 0.03200000151991844, 1.008000047877431, 0.0, 0.0, 0.0, 0.0, 0.0, 1.669771682019049E9, 0.0, 2022-11-29 19:28:02.019
35.0, 10.015452081337571, -38.15071944799274, 19.533497468568385, -14.783824524842203, 0.0, 0.03200000151991844, 1.008000047877431, 0.0, 0.0, 0.0, 0.0, 0.0, 1.669771682043033E9, 0.0, 2022-11-29 19:28:02.043
35.0, 17.472812592983246, -7.610696409828961, -1.2827856848016381, -8.216560202650726, 0.0, 0.03200000151991844, 1.008000047877431, 0.0, 0.0, 0.0, 0.0, 0.0, 1.669771682043033E9, 0.0, 2022-11-29 19:28:02.043
36.0, 11.144901867955923, -4.43178144749254, 13.542177739553154, -33.46836470346898, 0.0, 0.03200000151991844, 1.008000047877431, 0.0, 0.0, 0.0, 0.0, 0.0, 1.669771682067007E9, 0.0, 2022-11-29 19:28:02.067
36.0, 12.760538648813963, -0.8190380902960896, 3.825917654670775, -38.50227004382759, 0.0, 0.03200000151991844, 1.008000047877431, 0.0, 0.0, 0.0, 0.0, 0.0, 1.669771682067007E9, 0.0, 2022-11-29 19:28:02.067
37.0, 14.608049226924777, -24.006417815573514, 4.42804154753685, -36.09751437231898, 0.0, 0.03200000151991844, 1.008000047877431, 0.0, 0.0, 0.0, 0.0, 0.0, 1.669771682091055E9, 0.0, 2022-11-29 19:28:02.091
37.0, 12.334190053865314, -19.589595967903733, 5.759445931762457, -39.49708343204111, 0.0, 0.03200000151991844, 1.008000047877431, 0.0, 0.0, 0.0, 0.0, 0.0, 1.669771682091055E9, 0.0, 2022-11-29 19:28:02.091
38.0, 13.418761041015387, -20.849942252971232, -0.7330203913152218, -29.82570214662701, 0.0, 0.03200000151991844, 1.008000047877431, 0.0, 0.0, 0.0, 0.0, 0.0, 1.669771682115044E9, 0.0, 2022-11-29 19:28:02.115
38.0, 30.917752933688462, -28.52421696204692, -19.021131174638867, -5.755706031806767, 0.0, 0.03200000151991844, 1.008000047877431, 0.0, 0.0, 0.0, 0.0, 0.0, 1.669771682115044E9, 0.0, 2022-11-29 19:28:02.115
39.0, 7.333943813107908, 0.3291111961007118, -18.228272384032607, -22.59647553227842, 0.0, 0.03200000151991844, 1.008000047877431, 0.0, 0.0, 0.0, 0.0, 0.0, 1.669771682139076E9, 0.0, 2022-11-29 19:28:02.139
39.0, 8.47835319954902, -5.3330973368138075, -11.515151963569224, -24.010157715529203, 0.0, 0.03200000151991844, 1.008000047877431, 0.0, 0.0, 0.0, 0.0, 0.0, 1.669771682139076E9, 0.0, 2022-11-29 19:28:02.139
40.0, 22.633874531835318, -5.879122730344534, -20.042123862542212, -40.77612921688706, 0.0, 0.03200000151991844, 1.0240000486373901, 0.0, 0.0, 0.0, 0.0, 0.0, 1.669771682163089E9, 0.0, 2022-11-29 19:28:02.163
40.0, 21.32864944729954, -30.786856435239315, 9.828457083553076, -12.08361675683409, 0.0, 0.03200000151991844, 1.0240000486373901, 0.0, 0.0, 0.0, 0.0, 0.0, 1.669771682163089E9, 0.0, 2022-11-29 19:28:02.163
41.0, -3.9306348534300923, -6.3391304248943925, 19.993505163118243, -32.11826081946492, 0.0, 0.03200000151991844, 1.0240000486373901, 0.0, 0.0, 0.0, 0.0, 0.0, 1.669771682187037E9, 0.0, 2022-11-29 19:28:02.187
41.0, 8.399815300479531, -18.54990378022194, 13.27664484269917, -37.275582858361304, 0.0, 0.03200000151991844, 1.0240000486373901, 0.0, 0.0, 0.0, 0.0, 0.0, 1.669771682187037E9, 0.0, 2022-11-29 19:28:02.187
42.0, 17.71964599005878, 10.310904177837074, -0.33285109605640173, -37.06240856088698, 0.0, 0.03200000151991844, 1.0240000486373901, 0.0, 0.0, 0.0, 0.0, 0.0, 1.669771682211059E9, 0.0, 2022-11-29 19:28:02.211
42.0, 25.924986492842436, 12.977452846243978, -50.9860560959205, -3.459407459013164, 0.0, 0.03200000151991844, 1.0240000486373901, 0.0, 0.0, 0.0, 0.0, 0.0, 1.669771682211059E9, 0.0, 2022-11-29 19:28:02.211
43.0, -2.539392069913447, 5.965140429325402, 49.00390911940485, -67.63983059860766, 0.0, 0.03200000151991844, 1.0240000486373901, 0.0, 0.0, 0.0, 0.0, 0.0, 1.669771682235052E9, 0.0, 2022-11-29 19:28:02.235
43.0, -5.4116352358832955, 9.551704486832023, 62.88641775492579, -72.36332424264401, 0.0, 0.03200000151991844, 1.0240000486373901, 0.0, 0.0, 0.0, 0.0, 0.0, 1.669771682235052E9, 0.0, 2022-11-29 19:28:02.235
44.0, -11.735806060954928, -0.04113889951258898, 76.0733049986884, -76.76144659053534, 0.0, 0.03200000151991844, 1.0240000486373901, 0.0, 0.0, 0.0, 0.0, 0.0, 1.669771682259038E9, 0.0, 2022-11-29 19:28:02.259
44.0, -13.69925353769213, -8.358676400966942, 93.63213529065251, -77.17283558566123, 0.0, 0.03200000151991844, 1.0240000486373901, 0.0, 0.0, 0.0, 0.0, 0.0, 1.669771682259038E9, 0.0, 2022-11-29 19:28:02.259
45.0, -12.951273546554148, 0.2730126967653632, 61.46525577176362, -80.96883404068649, 0.0, 0.03200000151991844, 1.0240000486373901, 0.0, 0.0, 0.0, 0.0, 0.0, 1.669771682283038E9, 0.0, 2022-11-29 19:28:02.283
45.0, -24.48138510994613, 0.8526971898972988, 55.316860244609416, -76.94470168836415, 0.0, 0.03200000151991844, 1.0240000486373901, 0.0, 0.0, 0.0, 0.0, 0.0, 1.669771682283038E9, 0.0, 2022-11-29 19:28:02.283
46.0, 0.29171219654381275, 4.84691034257412, 34.98676408547908, -64.45717573631555, 0.0, 0.03200000151991844, 1.0240000486373901, 0.0, 0.0, 0.0, 0.0, 0.0, 1.669771682307039E9, 0.0, 2022-11-29 19:28:02.307
46.0, -24.12983451411128, -1.3014851845800877, 32.09582141973078, -62.991134953685105, 0.0, 0.03200000151991844, 1.0240000486373901, 0.0, 0.0, 0.0, 0.0, 0.0, 1.669771682307039E9, 0.0, 2022-11-29 19:28:02.307
47.0, -25.225625201128423, -24.56366290897131, 102.937006380409, -86.47022687550634, 0.0, 0.03200000151991844, 1.0240000486373901, 0.0, 0.0, 0.0, 0.0, 0.0, 1.669771682331048E9, 0.0, 2022-11-29 19:28:02.331
47.0, -36.437845268286765, -19.982285463251173, 109.22377820592374, -98.48652543313801, 0.0, 0.03200000151991844, 1.0240000486373901, 0.0, 0.0, 0.0, 0.0, 0.0, 1.669771682331048E9, 0.0, 2022-11-29 19:28:02.331
48.0, -48.547641324810684, -18.706979578360915, 107.45106562692672, -104.48158506210893, 0.0, 0.03200000151991844, 1.0240000486373901, 0.0, 0.0, 0.0, 0.0, 0.0, 1.669771682355034E9, 0.0, 2022-11-29 19:28:02.355
48.0, -46.63655244745314, -12.640861850231886, 107.6418005246669, -99.61597521975636, 0.0, 0.03200000151991844, 1.0240000486373901, 0.0, 0.0, 0.0, 0.0, 0.0, 1.669771682355034E9, 0.0, 2022-11-29 19:28:02.355
49.0, -40.74247011728585, -9.67886108532548, 90.116629332304, -84.52547889854759, 0.0, 0.03200000151991844, 1.0240000486373901, 0.0, 0.0, 0.0, 0.0, 0.0, 1.669771682379034E9, 0.0, 2022-11-29 19:28:02.379
49.0, -28.359661363996565, 4.502839546650648, 30.62604073714465, -54.44920345488936, 0.0, 0.03200000151991844, 1.0240000486373901, 0.0, 0.0, 0.0, 0.0, 0.0, 1.669771682379034E9, 0.0, 2022-11-29 19:28:02.379
50.0, -46.77866864576936, -24.769357406534255, 83.08561741560698, -78.42570207081735, 0.0, 0.03200000151991844, 1.0240000486373901, 0.0, 0.0, 0.0, 0.0, 0.0, 1.669771682403042E9, 0.0, 2022-11-29 19:28:02.403
50.0, -38.427472044713795, -40.54425541963428, 105.52127724979073, -79.98524035234004, 0.0, 0.03200000151991844, 1.0240000486373901, 0.0, 0.0, 0.0, 0.0, 0.0, 1.669771682403042E9, 0.0, 2022-11-29 19:28:02.403
51.0, -36.28450937010348, -0.8489572899416089, 96.3435627585277, -91.49665241595358, 0.0, 0.03200000151991844, 1.0240000486373901, 0.0, 0.0, 0.0, 0.0, 0.0, 1.669771682427064E9, 0.0, 2022-11-29 19:28:02.427
51.0, -27.41720657516271, -6.309211225248873, 69.66685637459159, -89.62670243810862, 0.0, 0.03200000151991844, 1.0240000486373901, 0.0, 0.0, 0.0, 0.0, 0.0, 1.669771682427064E9, 0.0, 2022-11-29 19:28:02.427
52.0, -37.189565159380436, -16.646294702775776, 80.97257394064218, -82.62186982110143, 0.0, 0.03200000151991844, 1.0240000486373901, 0.0, 0.0, 0.0, 0.0, 0.0, 1.669771682451044E9, 0.0, 2022-11-29 19:28:02.451
52.0, -23.38933432288468, -12.678260849788785, 64.03456704132259, -67.16860320419073, 0.0, 0.03200000151991844, 1.0240000486373901, 0.0, 0.0, 0.0, 0.0, 0.0, 1.669771682451044E9, 0.0, 2022-11-29 19:28:02.451
53.0, -29.3843939518556, -18.90145437605679, 61.472735571675, -64.38611763715744, 0.0, 0.03200000151991844, 1.0240000486373901, 0.0, 0.0, 0.0, 0.0, 0.0, 1.669771682475049E9, 0.0, 2022-11-29 19:28:02.475
53.0, -22.293543635867536, -14.1181223327294, 54.984009148553014, -60.08897258806974, 0.0, 0.03200000151991844, 1.0240000486373901, 0.0, 0.0, 0.0, 0.0, 0.0, 1.669771682475049E9, 0.0, 2022-11-29 19:28:02.475
54.0, -26.239138089120388, -17.588749491609633, 73.13000373356044, -59.63644469343126, 0.0, 0.03200000151991844, 1.0240000486373901, 0.0, 0.0, 0.0, 0.0, 0.0, 1.669771682499048E9, 0.0, 2022-11-29 19:28:02.499
54.0, -20.288957259617746, -20.56944975629449, 51.49094258993864, -53.03178137168288, 0.0, 0.03200000151991844, 1.0240000486373901, 0.0, 0.0, 0.0, 0.0, 0.0, 1.669771682499048E9, 0.0, 2022-11-29 19:28:02.499
55.0, -10.83823007158935, -8.83738359529525, 57.92731041368097, -54.082693259231746, 0.0, 0.03200000151991844, 1.0240000486373901, 0.0, 0.0, 0.0, 0.0, 0.0, 1.669771682523057E9, 0.0, 2022-11-29 19:28:02.523
55.0, -8.227779902517796, -17.914120787754655, 63.410003748722374, -70.89728346001357, 0.0, 0.03200000151991844, 1.0240000486373901, 0.0, 0.0, 0.0, 0.0, 0.0, 1.669771682523057E9, 0.0, 2022-11-29 19:28:02.523
56.0, -18.8603154765442, -35.581408178433776, 72.31096564326435, -58.46959590725601, 0.0, 0.03200000151991844, 1.0240000486373901, 0.0, 0.0, 0.0, 0.0, 0.0, 1.669771682547046E9, 0.0, 2022-11-29 19:28:02.547
56.0, -27.192812577821314, -20.636767955496907, 50.873859097249806, -58.955782901495695, 0.0, 0.03200000151991844, 1.0240000486373901, 0.0, 0.0, 0.0, 0.0, 0.0, 1.669771682547046E9, 0.0, 2022-11-29 19:28:02.547
57.0, -13.463639840483665, -15.920754111371934, 54.02285485994071, -69.61449777521193, 0.0, 0.03200000151991844, 1.0240000486373901, 0.0, 0.0, 0.0, 0.0, 0.0, 1.669771682571033E9, 0.0, 2022-11-29 19:28:02.571
57.0, -16.339622906409204, -13.523478239774704, 62.77796065621078, -63.346425449475646, 0.0, 0.03200000151991844, 1.0240000486373901, 0.0, 0.0, 0.0, 0.0, 0.0, 1.669771682571033E9, 0.0, 2022-11-29 19:28:02.571
58.0, -12.158414755947888, -18.96877257525921, 46.25508265197277, -55.46645624283701, 0.0, 0.03200000151991844, 1.0240000486373901, 0.0, 0.0, 0.0, 0.0, 0.0, 1.669771682595057E9, 0.0, 2022-11-29 19:28:02.595
58.0, -18.93137357570231, -21.77369754202664, 31.35906112845987, -55.82922653853893, 0.0, 0.03200000151991844, 1.0240000486373901, 0.0, 0.0, 0.0, 0.0, 0.0, 1.669771682595057E9, 0.0, 2022-11-29 19:28:02.595
59.0, -9.951873782090843, -9.562924186699092, 34.88578678667545, -48.40926502645016, 0.0, 0.03200000151991844, 1.0240000486373901, 0.0, 0.0, 0.0, 0.0, 0.0, 1.66977168261903E9, 0.0, 2022-11-29 19:28:02.619
59.0, 1.5071796821430326, -20.56196995638311, 39.02959593757987, -49.85660630930215, 0.0, 0.03200000151991844, 1.0240000486373901, 0.0, 0.0, 0.0, 0.0, 0.0, 1.66977168261903E9, 0.0, 2022-11-29 19:28:02.619
60.0, 3.7249403558671474, -37.978684050031006, 19.26422467175871, -25.607094996608794, 0.0, 0.03200000151991844, 1.0240000486373901, 0.0, 0.0, 0.0, 0.0, 0.0, 1.669771682643042E9, 0.0, 2022-11-29 19:28:02.643
60.0, -7.917368206195533, -28.97300495672971, 51.18801069352776, -47.91933813225478, 0.0, 0.03200000151991844, 1.0240000486373901, 0.0, 0.0, 0.0, 0.0, 0.0, 1.669771682643042E9, 0.0, 2022-11-29 19:28:02.643
61.0, -6.230673326179385, -24.309349711984396, 24.776837206445634, -40.046848725527525, 0.0, 0.03200000151991844, 1.0240000486373901, 0.0, 0.0, 0.0, 0.0, 0.0, 1.669771682667039E9, 0.0, 2022-11-29 19:28:02.667
61.0, -11.417914564721286, -19.088449373841286, 47.86697953287512, -56.08353973552585, 0.0, 0.03200000151991844, 1.0240000486373901, 0.0, 0.0, 0.0, 0.0, 0.0, 1.669771682667039E9, 0.0, 2022-11-29 19:28:02.667
62.0, -11.182300867512822, -14.06202383339405, 51.1356520941481, -67.74828769732267, 0.01600000075995922, 0.03200000151991844, 1.0240000486373901, 0.0, 0.0, 0.0, 0.0, 0.0, 1.669771682691054E9, 0.0, 2022-11-29 19:28:02.691
62.0, -7.165648315101862, -27.7537975711748, 41.669965306296945, -65.31361282616854, 0.01600000075995922, 0.03200000151991844, 1.0240000486373901, 0.0, 0.0, 0.0, 0.0, 0.0, 1.669771682691054E9, 0.0, 2022-11-29 19:28:02.691
63.0, 2.3598768720403314, -21.35482874698937, 23.890480916947126, -50.41011150274426, 0.01600000075995922, 0.03200000151991844, 1.0240000486373901, 0.0, 0.0, 0.0, 0.0, 0.0, 1.669771682715051E9, 0.0, 2022-11-29 19:28:02.715
63.0, -12.315490554086864, -23.864301617257297, 14.316337030380964, -51.05711419507861, 0.01600000075995922, 0.03200000151991844, 1.0240000486373901, 0.0, 0.0, 0.0, 0.0, 0.0, 1.669771682715051E9, 0.0, 2022-11-29 19:28:02.715
64.0, -2.6441092686727643, -9.6713812854141, 23.624948020093143, -48.850573221221566, 0.01600000075995922, 0.03200000151991844, 1.0240000486373901, 0.0, 0.0, 0.0, 0.0, 0.0, 1.669771682739039E9, 0.0, 2022-11-29 19:28:02.739
64.0, -6.664501721039414, -26.384994187392294, 22.96672562789172, -48.446664026007056, 0.01600000075995922, 0.03200000151991844, 1.0240000486373901, 0.0, 0.0, 0.0, 0.0, 0.0, 1.669771682739039E9, 0.0, 2022-11-29 19:28:02.739
65.0, -8.571850698441267, -49.748149210587144, 23.30331662390381, -37.668272353708744, 0.01600000075995922, 0.03200000151991844, 1.0240000486373901, 0.0, 0.0, 0.0, 0.0, 0.0, 1.669771682763026E9, 0.0, 2022-11-29 19:28:02.763
65.0, -2.01206617616117, -36.66223926562816, 53.708703263662755, -49.79676791001111, 0.01600000075995922, 0.03200000151991844, 1.0240000486373901, 0.0, 0.0, 0.0, 0.0, 0.0, 1.669771682763026E9, 0.0, 2022-11-29 19:28:02.763
66.0, -5.995059628970921, -30.18473254237324, 18.95755287539214, -38.68926504161209, 0.01600000075995922, 0.03200000151991844, 1.0240000486373901, 0.0, 0.0, 0.0, 0.0, 0.0, 1.669771682787048E9, 0.0, 2022-11-29 19:28:02.787
66.0, 0.7891188906505704, -21.39222774654627, 19.017391274683177, -58.581792905926704, 0.01600000075995922, 0.03200000151991844, 1.0240000486373901, 0.0, 0.0, 0.0, 0.0, 0.0, 1.669771682787048E9, 0.0, 2022-11-29 19:28:02.787
67.0, 2.6366294687613845, -14.402354729361832, 22.9742054278031, -57.11949202325195, 0.01600000075995922, 0.03200000151991844, 1.0240000486373901, 0.0, 0.0, 0.0, 0.0, 0.0, 1.669771682811062E9, 0.0, 2022-11-29 19:28:02.811
67.0, 2.1541823744773865, -28.12778756674379, 4.652435544878244, -37.54859555512667, 0.01600000075995922, 0.03200000151991844, 1.0240000486373901, 0.0, 0.0, 0.0, 0.0, 0.0, 1.669771682811062E9, 0.0, 2022-11-29 19:28:02.811
68.0, 13.2654251428321, -29.522770250216126, 22.95176602806896, -48.71219692286104, 0.01600000075995922, 0.03200000151991844, 1.0240000486373901, 0.0, 0.0, 0.0, 0.0, 0.0, 1.669771682835029E9, 0.0, 2022-11-29 19:28:02.835
68.0, 5.995059628970921, -40.420838721096516, 9.719999984838068, -35.562708678655326, 0.01600000075995922, 0.03200000151991844, 1.0240000486373901, 0.0, 0.0, 0.0, 0.0, 0.0, 1.669771682835029E9, 0.0, 2022-11-29 19:28:02.835
69.0, 7.954767205752432, -30.371727540157735, 28.62145436089486, -48.21853012870997, 0.01600000075995922, 0.03200000151991844, 1.0240000486373901, 0.0, 0.0, 0.0, 0.0, 0.0, 1.669771682859039E9, 0.0, 2022-11-29 19:28:02.859
69.0, -0.2543131969869137, -26.99459788016975, 34.88204688671976, -54.68855705205351, 0.01600000075995922, 0.03200000151991844, 1.0240000486373901, 0.0, 0.0, 0.0, 0.0, 0.0, 1.669771682859039E9, 0.0, 2022-11-29 19:28:02.859
70.0, 8.089403604157269, -23.090142326429486, 23.060223126783967, -55.331819844432175, 0.01600000075995922, 0.03200000151991844, 1.0240000486373901, 0.0, 0.0, 0.0, 0.0, 0.0, 1.66977168288305E9, 0.0, 2022-11-29 19:28:02.883
70.0, 16.661254302598536, -10.946687170304358, 3.141515962779522, -41.7223239056766, 0.01600000075995922, 0.03200000151991844, 1.0240000486373901, 0.0, 0.0, 0.0, 0.0, 0.0, 1.66977168288305E9, 0.0, 2022-11-29 19:28:02.883
71.0, 11.877922259271145, -14.974559422582388, -0.8115582903847098, -47.249896040186286, 0.01600000075995922, 0.03200000151991844, 1.0240000486373901, 0.0, 0.0, 0.0, 0.0, 0.0, 1.669771682907058E9, 0.0, 2022-11-29 19:28:02.907
71.0, 5.920261629857123, -26.055882991291583, 7.105809915810823, -52.85600607376546, 0.01600000075995922, 0.03200000151991844, 1.0240000486373901, 0.0, 0.0, 0.0, 0.0, 0.0, 1.669771682907058E9, 0.0, 2022-11-29 19:28:02.907
72.0, 3.332250860519707, -19.511058068834245, 31.41515962779522, -54.909211149439216, 0.01600000075995922, 0.03200000151991844, 1.0240000486373901, 0.0, 0.0, 0.0, 0.0, 0.0, 1.669771682931012E9, 0.0, 2022-11-29 19:28:02.931
72.0, 13.512258539907634, -25.132127702236176, 25.135867602191865, -47.97543663159013, 0.01600000075995922, 0.03200000151991844, 1.0240000486373901, 0.0, 0.0, 0.0, 0.0, 0.0, 1.669771682931012E9, 0.0, 2022-11-29 19:28:02.931
73.0, 2.00458637624979, -38.32649474591017, 13.70299343764782, -36.99509036168456, 0.01600000075995922, 0.03200000151991844, 1.0240000486373901, 0.0, 0.0, 0.0, 0.0, 0.0, 1.669771682955032E9, 0.0, 2022-11-29 19:28:02.955
73.0, 4.0054328525438905, -41.39321270957589, 18.8977144761011, -39.7962754284963, 0.01600000075995922, 0.03200000151991844, 1.0240000486373901, 0.0, 0.0, 0.0, 0.0, 0.0, 1.669771682955032E9, 0.0, 2022-11-29 19:28:02.955
74.0, 8.672827997244895, -37.870226951316, 16.10400920920074, -38.793982240371406, 0.01600000075995922, 0.03200000151991844, 1.0240000486373901, 0.0, 0.0, 0.0, 0.0, 0.0, 1.669771682979035E9, 0.0, 2022-11-29 19:28:02.979
74.0, 15.101716021075845, -28.92438625730574, 5.097483639605343, -29.246017653495073, 0.01600000075995922, 0.03200000151991844, 1.0240000486373901, 0.0, 0.0, 0.0, 0.0, 0.0, 1.669771682979035E9, 0.0, 2022-11-29 19:28:02.979
75.0, 6.668241620995104, -32.67550591286272, 4.895529041998088, -42.32818769849837, 0.01600000075995922, 0.03200000151991844, 1.0240000486373901, 0.0, 0.0, 0.0, 0.0, 0.0, 1.669771683003063E9, 0.0, 2022-11-29 19:28:03.003
75.0, 2.775005767121911, -40.028149225749075, 13.815190436318517, -42.537622096017, 0.01600000075995922, 0.03200000151991844, 1.0240000486373901, 0.0, 0.0, 0.0, 0.0, 0.0, 1.669771683003063E9, 0.0, 2022-11-29 19:28:03.003
76.0, 22.798430129885674, -42.58998069539666, 32.395013416185975, -42.71339739393443, 0.01600000075995922, 0.03200000151991844, 1.0240000486373901, 0.0, 0.0, 0.0, 0.0, 0.0, 1.669771683027047E9, 0.0, 2022-11-29 19:28:03.027
76.0, 6.092297027818859, -46.79362824559212, 23.27339742425829, -50.03612150717527, 0.01600000075995922, 0.03200000151991844, 1.0240000486373901, 0.0, 0.0, 0.0, 0.0, 0.0, 1.669771683027047E9, 0.0, 2022-11-29 19:28:03.027
77.0, 3.4855867587029934, -37.85900725144893, 13.628195438534021, -29.82570214662701, 0.01600000075995922, 0.03200000151991844, 1.0240000486373901, 0.0, 0.0, 0.0, 0.0, 0.0, 1.669771683051026E9, 0.0, 2022-11-29 19:28:03.051
77.0, 7.356383212842047, -31.168326230719686, 24.036337015219033, -38.9061792390421, 0.01600000075995922, 0.03200000151991844, 1.0240000486373901, 0.0, 0.0, 0.0, 0.0, 0.0, 1.669771683051026E9, 0.0, 2022-11-29 19:28:03.051
78.0, 10.295944578014314, -33.6815390009433, -0.5572450933977962, -33.14299340732396, 0.01600000075995922, 0.03200000151991844, 1.0240000486373901, 0.0, 0.0, 0.0, 0.0, 0.0, 1.669771683075065E9, 0.0, 2022-11-29 19:28:03.075
78.0, 13.082170045003295, -16.48547900468111, 7.031011916697025, -40.93694491498172, 0.01600000075995922, 0.03200000151991844, 1.0240000486373901, 0.0, 0.0, 0.0, 0.0, 0.0, 1.669771683075065E9, 0.0, 2022-11-29 19:28:03.075
79.0, 3.653882256709039, -36.19475177116692, 25.263024200685322, -32.24915731791407, 0.01600000075995922, 0.03200000151991844, 1.0240000486373901, 0.0, 0.0, 0.0, 0.0, 0.0, 1.66977168309905E9, 0.0, 2022-11-29 19:28:03.099
79.0, 1.649295880459249, -36.70711806509644, -5.9763601291924715, -29.993997644633055, 0.01600000075995922, 0.03200000151991844, 1.0240000486373901, 0.0, 0.0, 0.0, 0.0, 0.0, 1.66977168309905E9, 0.0, 2022-11-29 19:28:03.099
80.0, 5.3742362363263965, -29.919199645519257, 12.932574046775699, -38.72666404116899, 0.01600000075995922, 0.03200000151991844, 1.008000047877431, 0.0, 0.0, 0.0, 0.0, 0.0, 1.669771683123042E9, 0.0, 2022-11-29 19:28:03.123
80.0, 14.615529026836157, -47.80714113358408, 17.839322788640857, -41.79338200483471, 0.01600000075995922, 0.03200000151991844, 1.008000047877431, 0.0, 0.0, 0.0, 0.0, 0.0, 1.669771683123042E9, 0.0, 2022-11-29 19:28:03.123
81.0, 12.427687552757561, -36.400446268729866, 1.009772988036275, -27.02825697977096, 0.01600000075995922, 0.01600000075995922, 1.008000047877431, 0.0, 0.0, 0.0, 0.0, 0.0, 1.669771683147041E9, 0.0, 2022-11-29 19:28:03.147
81.0, 11.728326261043549, -37.29054245818406, 1.4735205825418234, -40.080507825128734, 0.01600000075995922, 0.01600000075995922, 1.008000047877431, 0.0, 0.0, 0.0, 0.0, 0.0, 1.669771683147041E9, 0.0, 2022-11-29 19:28:03.147
82.0, 17.944039987400174, -43.07242778968066, -6.866456318646669, -37.97120425011963, 0.01600000075995922, 0.01600000075995922, 1.008000047877431, 0.0, 0.0, 0.0, 0.0, 0.0, 1.669771683171056E9, 0.0, 2022-11-29 19:28:03.171
82.0, 25.33034239988774, -46.1690649529919, 18.91641397587955, -30.910273133777082, 0.01600000075995922, 0.01600000075995922, 1.008000047877431, 0.0, 0.0, 0.0, 0.0, 0.0, 1.669771683171056E9, 0.0, 2022-11-29 19:28:03.171
83.0, 15.329849918372929, -42.59372059535235, 7.524678710848093, -43.93634467944503, 0.01600000075995922, 0.01600000075995922, 1.008000047877431, 0.0, 0.0, 0.0, 0.0, 0.0, 1.669771683195042E9, 0.0, 2022-11-29 19:28:03.195
83.0, 19.952366263605654, -37.41021925676614, -6.657021921128035, -38.042262349277735, 0.01600000075995922, 0.01600000075995922, 1.008000047877431, 0.0, 0.0, 0.0, 0.0, 0.0, 1.669771683195042E9, 0.0, 2022-11-29 19:28:03.195
84.0, 18.44892648141831, -24.88903420511633, -10.004232381470501, -35.4243323802948, 0.01600000075995922, 0.01600000075995922, 1.008000047877431, 0.0, 0.0, 0.0, 0.0, 0.0, 1.669771683219032E9, 0.0, 2022-11-29 19:28:03.219
84.0, 13.70673333760351, -42.21973059978336, -0.40016929525882006, -43.57357438374311, 0.01600000075995922, 0.01600000075995922, 1.008000047877431, 0.0, 0.0, 0.0, 0.0, 0.0, 1.669771683219032E9, 0.0, 2022-11-29 19:28:03.219
85.0, 16.384501705877483, -31.84150822274387, -9.712520184926689, -37.279322758316994, 0.01600000075995922, 0.01600000075995922, 1.008000047877431, 0.0, 0.0, 0.0, 0.0, 0.0, 1.669771683243047E9, 0.0, 2022-11-29 19:28:03.243
85.0, 10.516598675400019, -50.03238160721958, 12.521185051649809, -40.38717962149531, 0.01600000075995922, 0.01600000075995922, 1.008000047877431, 0.0, 0.0, 0.0, 0.0, 0.0, 1.669771683243047E9, 0.0, 2022-11-29 19:28:03.243
86.0, 19.196906472556293, -36.91281256265938, 6.174574826844037, -38.6107271425426, 0.01600000075995922, 0.01600000075995922, 1.008000047877431, 0.0, 0.0, 0.0, 0.0, 0.0, 1.669771683267037E9, 0.0, 2022-11-29 19:28:03.267
86.0, 6.937514417804778, -32.69420541264117, 1.4436013828963041, -36.808095363900065, 0.01600000075995922, 0.01600000075995922, 1.008000047877431, 0.0, 0.0, 0.0, 0.0, 0.0, 1.669771683267037E9, 0.0, 2022-11-29 19:28:03.267
87.0, 12.330450153909624, -37.664532453753054, 3.171435162425041, -37.593474354594946, 0.01600000075995922, 0.01600000075995922, 1.008000047877431, 0.0, 0.0, 0.0, 0.0, 0.0, 1.669771683291044E9, 0.0, 2022-11-29 19:28:03.291
87.0, 6.679461320862174, -36.415405868552625, 7.0235321167856455, -27.050696379505098, 0.01600000075995922, 0.01600000075995922, 1.008000047877431, 0.0, 0.0, 0.0, 0.0, 0.0, 1.669771683291044E9, 0.0, 2022-11-29 19:28:03.291
88.0, 17.64484799094498, -52.28006148058921, 17.622408591210842, -43.17340508848429, 0.01600000075995922, 0.01600000075995922, 1.008000047877431, 0.0, 0.0, 0.0, 0.0, 0.0, 1.669771683315049E9, 0.0, 2022-11-29 19:28:03.315
88.0, 12.225732955150306, -48.60747972410172, -5.942701029591262, -30.394166939891875, 0.01600000075995922, 0.01600000075995922, 1.008000047877431, 0.0, 0.0, 0.0, 0.0, 0.0, 1.669771683315049E9, 0.0, 2022-11-29 19:28:03.315
89.0, -2.3598768720403314, -27.144193878397346, 3.7137206560000777, -33.599261201918125, 0.01600000075995922, 0.01600000075995922, 1.008000047877431, 0.0, 0.0, 0.0, 0.0, 0.0, 1.669771683339053E9, 0.0, 2022-11-29 19:28:03.339
89.0, 12.764278548769653, -30.323108840733767, 1.8736898778006434, -38.20681794732809, 0.01600000075995922, 0.01600000075995922, 1.008000047877431, 0.0, 0.0, 0.0, 0.0, 0.0, 1.669771683339053E9, 0.0, 2022-11-29 19:28:03.339
90.0, 12.46508655231446, -39.33252783399075, 1.6605155803263187, -52.956983372569084, 0.01600000075995922, 0.01600000075995922, 1.0240000486373901, 0.0, 0.0, 0.0, 0.0, 0.0, 1.669771683363182E9, 0.0, 2022-11-29 19:28:03.363
90.0, 14.234059231355786, -32.11826081946492, -3.508026158437133, -34.08170829620212, 0.01600000075995922, 0.01600000075995922, 1.0240000486373901, 0.0, 0.0, 0.0, 0.0, 0.0, 1.669771683363182E9, 0.0, 2022-11-29 19:28:03.363
91.0, 8.657868397422135, -30.65222003683448, -2.045725275762379, -38.3152750460431, 0.01600000075995922, 0.03200000151991844, 1.0240000486373901, 0.0, 0.0, 0.0, 0.0, 0.0, 1.669771683387043E9, 0.0, 2022-11-29 19:28:03.387
91.0, 14.533251227810979, -31.961185021325946, -5.24707963783294, -42.69843779411167, 0.01600000075995922, 0.03200000151991844, 1.0240000486373901, 0.0, 0.0, 0.0, 0.0, 0.0, 1.669771683387043E9, 0.0, 2022-11-29 19:28:03.387
92.0, 16.190026908181608, -39.239030335098505, 9.570403986610472, -52.42217767890543, 0.0, 0.03200000151991844, 1.0240000486373901, 0.0, 0.0, 0.0, 0.0, 0.0, 1.669771683411044E9, 0.0, 2022-11-29 19:28:03.411
92.0, 10.07529048062861, -36.55378216691315, 16.350842606276274, -56.898837925866246, 0.0, 0.03200000151991844, 1.0240000486373901, 0.0, 0.0, 0.0, 0.0, 0.0, 1.669771683411044E9, 0.0, 2022-11-29 19:28:03.411
93.0, 23.3444555234164, -31.583455125801265, 1.4174220832064748, -43.674551682546735, 0.0, 0.03200000151991844, 1.0240000486373901, 0.0, 0.0, 0.0, 0.0, 0.0, 1.669771683435029E9, 0.0, 2022-11-29 19:28:03.435
93.0, 13.751612137071788, -36.437845268286765, 8.616729497909546, -43.45389758516103, 0.0, 0.03200000151991844, 1.0240000486373901, 0.0, 0.0, 0.0, 0.0, 0.0, 1.669771683435029E9, 0.0, 2022-11-29 19:28:03.435
94.0, 3.3584301602095366, -46.905825244262815, 0.08975759893655777, -23.535190421156585, 0.0, 0.03200000151991844, 1.0240000486373901, 0.0, 0.0, 0.0, 0.0, 0.0, 1.669771683459037E9, 0.0, 2022-11-29 19:28:03.459
94.0, 13.160707944072783, -36.007756773382425, -0.003739899955689907, -43.06868788972497, 0.0, 0.03200000151991844, 1.0240000486373901, 0.0, 0.0, 0.0, 0.0, 0.0, 1.669771683459037E9, 0.0, 2022-11-29 19:28:03.459
95.0, 10.314644077792764, -32.006063820794225, -8.743886096403003, -52.26884178072214, 0.0, 0.03200000151991844, 1.0240000486373901, 0.0, 0.0, 0.0, 0.0, 0.0, 1.669771683483021E9, 0.0, 2022-11-29 19:28:03.483
95.0, 15.939453611150384, -16.825809900648892, -1.9896267764270306, -34.90074638649821, 0.0, 0.03200000151991844, 1.0240000486373901, 0.0, 0.0, 0.0, 0.0, 0.0, 1.669771683483021E9, 0.0, 2022-11-29 19:28:03.483
96.0, 12.984932646155357, -24.021377415396273, -10.85318967141211, -34.784809487871826, 0.0, 0.03200000151991844, 1.0240000486373901, 0.0, 0.0, 0.0, 0.0, 0.0, 1.669771683507059E9, 0.0, 2022-11-29 19:28:03.507
96.0, 25.71929199527949, -25.655713696032763, -19.219345872290432, -46.63655244745314, 0.0, 0.03200000151991844, 1.0240000486373901, 0.0, 0.0, 0.0, 0.0, 0.0, 1.669771683507059E9, 0.0, 2022-11-29 19:28:03.507
97.0, 26.14190069027245, -21.885894540697336, -14.86610232386738, -38.63690644223243, 0.0, 0.03200000151991844, 1.0240000486373901, 0.0, 0.0, 0.0, 0.0, 0.0, 1.669771683531055E9, 0.0, 2022-11-29 19:28:03.531
97.0, 26.044663291424513, -23.262177724391222, -19.870088464580476, -37.279322758316994, 0.0, 0.03200000151991844, 1.0240000486373901, 0.0, 0.0, 0.0, 0.0, 0.0, 1.669771683531055E9, 0.0, 2022-11-29 19:28:03.531
98.0, 27.600461672991514, -16.94174679927528, -20.771404353901744, -48.28584832791239, 0.0, 0.03200000151991844, 1.0240000486373901, 0.0, 0.0, 0.0, 0.0, 0.0, 1.669771683555063E9, 0.0, 2022-11-29 19:28:03.555
98.0, 16.672474002465606, -17.71590609010309, -30.502624038606882, -37.683231953531504, 0.0, 0.03200000151991844, 1.0240000486373901, 0.0, 0.0, 0.0, 0.0, 0.0, 1.669771683555063E9, 0.0, 2022-11-29 19:28:03.555
99.0, 36.32564826961607, -12.229472855105996, -30.382947240024805, -48.899191920645535, 0.0, 0.03200000151991844, 1.0240000486373901, 0.0, 0.0, 0.0, 0.0, 0.0, 1.669771683579054E9, 0.0, 2022-11-29 19:28:03.579
99.0, 40.398399321362376, -8.179161203093827, -34.26122349407524, -43.43145818542689, 0.0, 0.03200000151991844, 1.0240000486373901, 0.0, 0.0, 0.0, 0.0, 0.0, 1.669771683579054E9, 0.0, 2022-11-29 19:28:03.579
100.0, 37.35412075743079, -25.128387802280486, -45.92597145587206, -37.612173854373395, 0.0, 0.03200000151991844, 1.0240000486373901, 0.0, 0.0, 0.0, 0.0, 0.0, 1.669771683603045E9, 0.0, 2022-11-29 19:28:03.603
100.0, 39.9458714267239, -17.71590609010309, -51.711596687324345, -31.676952624693513, 0.0, 0.03200000151991844, 1.0240000486373901, 0.0, 0.0, 0.0, 0.0, 0.0, 1.669771683603045E9, 0.0, 2022-11-29 19:28:03.603
0.0, 66.17378981597722, -224.88205428561196, 35.01294338516891, 207.1960673951544, 0.0, 0.03200000151991844, 1.0240000486373901, 0.0, 0.0, 0.0, 0.0, 0.0, 1.669771683627026E9, 0.0, 2022-11-29 19:28:03.627
1.0, 56.40143123175949, -234.81148866796866, 23.38933432288468, 207.71591348899528, 0.0, 0.01600000075995922, 1.0240000486373901, 0.0, 0.0, 0.0, 0.0, 0.0, 1.669771683651055E9, 0.0, 2022-11-29 19:28:03.651
1.0, 57.695436616428196, -230.45076531963423, 20.356275458820164, 215.1957134003751, 0.0, 0.01600000075995922, 1.0240000486373901, 0.0, 0.0, 0.0, 0.0, 0.0, 1.669771683651055E9, 0.0, 2022-11-29 19:28:03.651
2.0, 55.2121430458501, -224.05927629536018, 18.228272384032607, 217.47331247339025, 0.0, 0.01600000075995922, 1.0240000486373901, 0.0, 0.0, 0.0, 0.0, 0.0, 1.669771683675023E9, 0.0, 2022-11-29 19:28:03.675
2.0, 53.304794068448246, -226.25085766939446, 13.807710636407137, 208.58357027871534, 0.0, 0.01600000075995922, 1.0240000486373901, 0.0, 0.0, 0.0, 0.0, 0.0, 1.669771683675023E9, 0.0, 2022-11-29 19:28:03.675
3.0, 52.923324272967875, -227.2381912576966, 17.132481697015464, 216.17930708872154, 0.0, 0.01600000075995922, 1.0240000486373901, 0.0, 0.0, 0.0, 0.0, 0.0, 1.669771683699036E9, 0.0, 2022-11-29 19:28:03.699
3.0, 54.03033465985209, -219.7509115464054, 14.49211232829839, 211.6054094429128, 0.0, 0.01600000075995922, 1.0240000486373901, 0.0, 0.0, 0.0, 0.0, 0.0, 1.669771683699036E9, 0.0, 2022-11-29 19:28:03.699
4.0, 57.699176516383886, -219.28716395189986, 13.964786434546113, 203.95731403352693, 0.0, 0.01600000075995922, 1.0240000486373901, 0.0, 0.0, 0.0, 0.0, 0.0, 1.669771683723042E9, 0.0, 2022-11-29 19:28:03.723
4.0, 61.29696027375758, -229.2427776339464, 5.486433234997094, 213.29210432292894, 0.0, 0.01600000075995922, 1.0240000486373901, 0.0, 0.0, 0.0, 0.0, 0.0, 1.669771683723042E9, 0.0, 2022-11-29 19:28:03.723
5.0, 63.028533953242004, -236.99933014204726, 8.276398601941764, 224.32106929225847, 0.0, 0.01600000075995922, 1.0240000486373901, 0.0, 0.0, 0.0, 0.0, 0.0, 1.669771683747061E9, 0.0, 2022-11-29 19:28:03.747
5.0, 64.15424383990467, -228.88374723820016, 12.326710253953934, 225.4617387787439, 0.0, 0.01600000075995922, 1.0240000486373901, 0.0, 0.0, 0.0, 0.0, 0.0, 1.669771683747061E9, 0.0, 2022-11-29 19:28:03.747
6.0, 55.776867939159274, -228.69675224041566, 5.471473635174334, 219.5676564485766, 0.0, 0.01600000075995922, 1.0240000486373901, 0.0, 0.0, 0.0, 0.0, 0.0, 1.669771683771061E9, 0.0, 2022-11-29 19:28:03.771
6.0, 44.71050397027284, -227.40648675570264, 7.887449006550014, 219.74343174649402, 0.0, 0.01600000075995922, 1.0240000486373901, 0.0, 0.0, 0.0, 0.0, 0.0, 1.669771683771061E9, 0.0, 2022-11-29 19:28:03.771
7.0, 61.49143507145345, -230.48068451927975, 14.043324333615601, 222.02103081950918, 0.0, 0.01600000075995922, 1.0240000486373901, 0.0, 0.0, 0.0, 0.0, 0.0, 1.669771683795035E9, 0.0, 2022-11-29 19:28:03.795
7.0, 61.405417372472584, -227.33916855650023, 11.963939958252013, 220.77564413426444, 0.0, 0.01600000075995922, 1.0240000486373901, 0.0, 0.0, 0.0, 0.0, 0.0, 1.669771683795035E9, 0.0, 2022-11-29 19:28:03.795
8.0, 43.32300108671188, -229.56066913018003, 6.7392997201532125, 225.9441858730279, 0.0, 0.01600000075995922, 1.0240000486373901, 0.0, 0.0, 0.0, 0.0, 0.0, 1.669771683819029E9, 0.0, 2022-11-29 19:28:03.819
8.0, 54.767094951123, -235.97459755418822, 19.223085772246122, 222.11078841844574, 0.0, 0.01600000075995922, 1.0240000486373901, 0.0, 0.0, 0.0, 0.0, 0.0, 1.669771683819029E9, 0.0, 2022-11-29 19:28:03.819
9.0, 62.35909186117351, -245.5375217408873, 19.26422467175871, 213.20608662394807, 0.0, 0.01600000075995922, 1.0240000486373901, 0.0, 0.0, 0.0, 0.0, 0.0, 1.669771683843056E9, 0.0, 2022-11-29 19:28:03.843
9.0, 63.757814444601536, -228.9772447370924, 9.338530189357698, 225.18872608197853, 0.0, 0.01600000075995922, 1.0240000486373901, 0.0, 0.0, 0.0, 0.0, 0.0, 1.669771683843056E9, 0.0, 2022-11-29 19:28:03.843
10.0, 52.897144973278046, -229.983277825173, 16.07782990951091, 220.55872993683442, 0.0, 0.01600000075995922, 1.0240000486373901, 0.0, 0.0, 0.0, 0.0, 0.0, 1.669771683867058E9, 0.0, 2022-11-29 19:28:03.867
10.0, 41.640046106651425, -227.78047675127164, 17.798183889128268, 225.9367060731165, 0.0, 0.01600000075995922, 1.0240000486373901, 0.0, 0.0, 0.0, 0.0, 0.0, 1.669771683867058E9, 0.0, 2022-11-29 19:28:03.867
11.0, 53.357152667827904, -235.2453170628287, 16.16010770853609, 223.43471300275996, 0.0, 0.01600000075995922, 1.0240000486373901, 0.0, 0.0, 0.0, 0.0, 0.0, 1.669771683891061E9, 0.0, 2022-11-29 19:28:03.891
11.0, 46.34858015086502, -238.47659062454477, 20.58440935611725, 228.00113084865734, 0.0, 0.01600000075995922, 1.0240000486373901, 0.0, 0.0, 0.0, 0.0, 0.0, 1.669771683891061E9, 0.0, 2022-11-29 19:28:03.891
12.0, 46.449557449668646, -237.18258523987606, 37.35412075743079, 227.63462065299973, 0.01600000075995922, 0.01600000075995922, 1.0240000486373901, 0.0, 0.0, 0.0, 0.0, 0.0, 1.669771683915066E9, 0.0, 2022-11-29 19:28:03.915
12.0, 46.056867954321206, -234.70677146920934, 27.256390877068043, 224.28367029270157, 0.01600000075995922, 0.01600000075995922, 1.0240000486373901, 0.0, 0.0, 0.0, 0.0, 0.0, 1.669771683915066E9, 0.0, 2022-11-29 19:28:03.915
13.0, 36.21345127094537, -232.0551824006252, 28.004370868206024, 222.30152331618592, 0.01600000075995922, 0.01600000075995922, 1.0240000486373901, 0.0, 0.0, 0.0, 0.0, 0.0, 1.669771683940007E9, 0.0, 2022-11-29 19:28:03.940
13.0, 45.697837558574975, -227.08111545955762, 34.21260479465127, 219.48163874959573, 0.01600000075995922, 0.01600000075995922, 1.0240000486373901, 0.0, 0.0, 0.0, 0.0, 0.0, 1.669771683940007E9, 0.0, 2022-11-29 19:28:03.940
14.0, 46.3560599507764, -229.54196963040158, 37.35412075743079, 203.4524275395088, 0.01600000075995922, 0.01600000075995922, 1.0240000486373901, 0.0, 0.0, 0.0, 0.0, 0.0, 1.669771683963001E9, 0.0, 2022-11-29 19:28:03.963
14.0, 43.02380909025669, -236.37476684944704, 25.981084992177784, 220.40165413869545, 0.01600000075995922, 0.01600000075995922, 1.0240000486373901, 0.0, 0.0, 0.0, 0.0, 0.0, 1.669771683963001E9, 0.0, 2022-11-29 19:28:03.963
15.0, 44.19813767634332, -230.3460481208749, 38.19933814741671, 221.53858372522518, 0.01600000075995922, 0.01600000075995922, 1.0240000486373901, 0.0, 0.0, 0.0, 0.0, 0.0, 1.669771683987037E9, 0.0, 2022-11-29 19:28:03.987
15.0, 44.085940677672625, -235.58190805884078, 29.84814154636115, 219.46293924981728, 0.01600000075995922, 0.01600000075995922, 1.0240000486373901, 0.0, 0.0, 0.0, 0.0, 0.0, 1.669771683987037E9, 0.0, 2022-11-29 19:28:03.987
16.0, 48.83187372144312, -232.7956825918518, 38.57706804294139, 216.16808738885447, 0.01600000075995922, 0.01600000075995922, 1.0240000486373901, 0.0, 0.0, 0.0, 0.0, 0.0, 1.669771684011057E9, 0.0, 2022-11-29 19:28:04.011
16.0, 45.4659637613222, -233.74935708055273, 36.34808766935021, 212.17761413613334, 0.01600000075995922, 0.01600000075995922, 1.0240000486373901, 0.0, 0.0, 0.0, 0.0, 0.0, 1.669771684011057E9, 0.0, 2022-11-29 19:28:04.011
17.0, 33.32998840510845, -238.10634052893147, 37.69071175344288, 215.39392809802666, 0.01600000075995922, 0.01600000075995922, 1.0240000486373901, 0.0, 0.0, 0.0, 0.0, 0.0, 1.669771684035042E9, 0.0, 2022-11-29 19:28:04.035
17.0, 38.72666404116899, -234.48611737182364, 42.14867250062525, 209.10715627251193, 0.01600000075995922, 0.01600000075995922, 1.0240000486373901, 0.0, 0.0, 0.0, 0.0, 0.0, 1.669771684035042E9, 0.0, 2022-11-29 19:28:04.035
18.0, 36.70711806509644, -242.08559408178553, 40.19270482379943, 213.20982652390376, 0.01600000075995922, 0.01600000075995922, 1.0240000486373901, 0.0, 0.0, 0.0, 0.0, 0.0, 1.669771684059036E9, 0.0, 2022-11-29 19:28:04.059
18.0, 44.65440547093749, -238.64488612255082, 44.93489796761423, 221.16833362961188, 0.01600000075995922, 0.01600000075995922, 1.0240000486373901, 0.0, 0.0, 0.0, 0.0, 0.0, 1.669771684059036E9, 0.0, 2022-11-29 19:28:04.059
19.0, 52.093066482804716, -226.4602920669131, 48.921631320379674, 205.07180422032252, 0.01600000075995922, 0.01600000075995922, 1.0240000486373901, 0.0, 0.0, 0.0, 0.0, 0.0, 1.669771684083112E9, 0.0, 2022-11-29 19:28:04.083
19.0, 32.443632115609944, -226.07508237147704, 23.7521046185866, 205.58417051425204, 0.01600000075995922, 0.01600000075995922, 1.0240000486373901, 0.0, 0.0, 0.0, 0.0, 0.0, 1.669771684083112E9, 0.0, 2022-11-29 19:28:04.083
20.0, 27.140453978441656, -220.69336633523926, 41.71858400572091, 210.03839136147872, 0.01600000075995922, 0.01600000075995922, 1.008000047877431, 0.0, 0.0, 0.0, 0.0, 0.0, 1.669771684107042E9, 0.0, 2022-11-29 19:28:04.107
20.0, 31.41889952775091, -231.53907620674, 43.49503648467362, 206.7136203008704, 0.01600000075995922, 0.01600000075995922, 1.008000047877431, 0.0, 0.0, 0.0, 0.0, 0.0, 1.669771684107042E9, 0.0, 2022-11-29 19:28:04.107
21.0, 28.737391259521246, -246.43883763020858, 42.6872180942446, 210.88734865142033, 0.01600000075995922, 0.01600000075995922, 1.008000047877431, 0.0, 0.0, 0.0, 0.0, 0.0, 1.669771684131057E9, 0.0, 2022-11-29 19:28:04.131
21.0, 35.85442087519914, -232.45535169588402, 41.58768750727177, 214.9750593029894, 0.01600000075995922, 0.01600000075995922, 1.008000047877431, 0.0, 0.0, 0.0, 0.0, 0.0, 1.669771684131057E9, 0.0, 2022-11-29 19:28:04.131
22.0, 27.944532468914986, -221.61338172433898, 43.311781386844814, 202.9325814456679, 0.0, 0.01600000075995922, 1.008000047877431, 0.0, 0.0, 0.0, 0.0, 0.0, 1.669771684155054E9, 0.0, 2022-11-29 19:28:04.155
22.0, 35.78710267599672, -218.06047676643357, 39.40732583310455, 201.92280845763162, 0.0, 0.01600000075995922, 1.008000047877431, 0.0, 0.0, 0.0, 0.0, 0.0, 1.669771684155054E9, 0.0, 2022-11-29 19:28:04.155
23.0, 33.0158368088305, -218.03803736669943, 38.11706034839153, 195.65847603185102, 0.0, 0.01600000075995922, 1.008000047877431, 0.0, 0.0, 0.0, 0.0, 0.0, 1.669771684179051E9, 0.0, 2022-11-29 19:28:04.179
23.0, 24.844155405648053, -206.597683402244, 39.0183762377128, 190.71806819038466, 0.0, 0.01600000075995922, 1.008000047877431, 0.0, 0.0, 0.0, 0.0, 0.0, 1.669771684179051E9, 0.0, 2022-11-29 19:28:04.179
24.0, 29.246017653495073, -197.745340207126, 29.672366248443723, 184.924963159021, 0.0, 0.01600000075995922, 1.008000047877431, 0.0, 0.0, 0.0, 0.0, 0.0, 1.669771684203099E9, 0.0, 2022-11-29 19:28:04.203
24.0, 26.729064983315766, -194.08023825054988, 22.689973031170666, 177.19085005065426, 0.0, 0.01600000075995922, 1.008000047877431, 0.0, 0.0, 0.0, 0.0, 0.0, 1.669771684203099E9, 0.0, 2022-11-29 19:28:04.203
25.0, 35.11018078401685, -174.28120788512751, 40.67889181803912, 164.79308169754222, 0.0, 0.01600000075995922, 1.008000047877431, 0.0, 0.0, 0.0, 0.0, 0.0, 1.669771684227049E9, 0.0, 2022-11-29 19:28:04.227
25.0, 45.682877958752215, -168.30484775593504, 24.623501308262348, 165.90009208442643, 0.0, 0.01600000075995922, 1.008000047877431, 0.0, 0.0, 0.0, 0.0, 0.0, 1.669771684227049E9, 0.0, 2022-11-29 19:28:04.227
26.0, 34.72871098853648, -168.37964575504884, 18.673320478759706, 149.41087317978963, 0.0, 0.01600000075995922, 1.008000047877431, 0.0, 0.0, 0.0, 0.0, 0.0, 1.669771684251059E9, 0.0, 2022-11-29 19:28:04.251
26.0, 34.21634469460696, -150.69739876454696, 28.666333160363138, 152.18587894691154, 0.0, 0.01600000075995922, 1.008000047877431, 0.0, 0.0, 0.0, 0.0, 0.0, 1.669771684251059E9, 0.0, 2022-11-29 19:28:04.251
27.0, 32.70916501246393, -145.7532510231249, 30.97011153306812, 143.25499785272405, 0.0, 0.01600000075995922, 1.008000047877431, 0.0, 0.0, 0.0, 0.0, 0.0, 1.669771684275052E9, 0.0, 2022-11-29 19:28:04.275
27.0, 27.79867637064308, -153.44248533202335, 24.731958406977355, 140.0162444910966, 0.0, 0.01600000075995922, 1.008000047877431, 0.0, 0.0, 0.0, 0.0, 0.0, 1.669771684275052E9, 0.0, 2022-11-29 19:28:04.275
28.0, 30.865394334308803, -140.11348188994452, 25.648233896121383, 138.5614234083332, 0.0, 0.01600000075995922, 1.008000047877431, 0.0, 0.0, 0.0, 0.0, 0.0, 1.669771684299037E9, 0.0, 2022-11-29 19:28:04.299
28.0, 34.24252399429679, -136.02203133841977, 30.2370911417529, 139.58241609623656, 0.0, 0.01600000075995922, 1.008000047877431, 0.0, 0.0, 0.0, 0.0, 0.0, 1.669771684299037E9, 0.0, 2022-11-29 19:28:04.299
29.0, 24.97879180405289, -130.61787590244785, 33.43470560386777, 132.17367428401485, 0.0, 0.01600000075995922, 1.008000047877431, 0.0, 0.0, 0.0, 0.0, 0.0, 1.669771684323193E9, 0.0, 2022-11-29 19:28:04.323
29.0, 24.219592113047838, -134.06606366159394, 31.317922228947282, 132.68978047790006, 0.0, 0.01600000075995922, 1.008000047877431, 0.0, 0.0, 0.0, 0.0, 0.0, 1.669771684323193E9, 0.0, 2022-11-29 19:28:04.323
30.0, 20.621808355674148, -131.58277009101585, 40.17026542406529, 128.90126182278618, 0.0, 0.01600000075995922, 1.0240000486373901, 0.0, 0.0, 0.0, 0.0, 0.0, 1.669771684347051E9, 0.0, 2022-11-29 19:28:04.347
30.0, 24.630981108173728, -131.16390129597858, 42.51892259623855, 141.88993436889723, 0.0, 0.01600000075995922, 1.0240000486373901, 0.0, 0.0, 0.0, 0.0, 0.0, 1.669771684347051E9, 0.0, 2022-11-29 19:28:04.347
31.0, 19.870088464580476, -117.45716795837507, 39.54944203142077, 118.62401674455032, 0.0, 0.01600000075995922, 1.0240000486373901, 0.0, 0.0, 0.0, 0.0, 0.0, 1.669771684371038E9, 0.0, 2022-11-29 19:28:04.371
31.0, 28.019330468028784, -116.3314580717124, 37.978684050031006, 117.76757965469733, 0.0, 0.01600000075995922, 1.0240000486373901, 0.0, 0.0, 0.0, 0.0, 0.0, 1.669771684371038E9, 0.0, 2022-11-29 19:28:04.371
32.0, 30.52132353838533, -117.42724875872955, 45.320107663050294, 119.19996133772656, 0.0, 0.01600000075995922, 1.0240000486373901, 0.0, 0.0, 0.0, 0.0, 0.0, 1.669771684395035E9, 0.0, 2022-11-29 19:28:04.395
32.0, 23.972758715972304, -120.0002999282442, 38.54340894334018, 113.81824530148879, 0.0, 0.01600000075995922, 1.0240000486373901, 0.0, 0.0, 0.0, 0.0, 0.0, 1.669771684395035E9, 0.0, 2022-11-29 19:28:04.395
33.0, 32.376313916407526, -119.49915333418176, 47.80714113358408, 115.27680628420785, 0.0, 0.01600000075995922, 1.0240000486373901, 0.0, 0.0, 0.0, 0.0, 0.0, 1.669771684419047E9, 0.0, 2022-11-29 19:28:04.419
33.0, 29.249757553450763, -118.39214294729754, 44.901238868013024, 119.61509023280814, 0.0, 0.01600000075995922, 1.0240000486373901, 0.0, 0.0, 0.0, 0.0, 0.0, 1.669771684419047E9, 0.0, 2022-11-29 19:28:04.419
34.0, 21.437106546014547, -118.94564814073965, 37.39899955689907, 113.15628300933167, 0.0, 0.01600000075995922, 1.0240000486373901, 0.0, 0.0, 0.0, 0.0, 0.0, 1.66977168444305E9, 0.0, 2022-11-29 19:28:04.443
34.0, 25.580915696918964, -116.23422067286447, 43.19210458826274, 112.82717181323096, 0.0, 0.01600000075995922, 1.0240000486373901, 0.0, 0.0, 0.0, 0.0, 0.0, 1.66977168444305E9, 0.0, 2022-11-29 19:28:04.443
35.0, 28.815929158590734, -121.14096941472962, 42.68347819428891, 114.7420005905442, 0.0, 0.01600000075995922, 1.0240000486373901, 0.0, 0.0, 0.0, 0.0, 0.0, 1.66977168446705E9, 0.0, 2022-11-29 19:28:04.467
35.0, 27.922093069180846, -114.37549039488658, 46.65525194723159, 112.09789132187143, 0.0, 0.01600000075995922, 1.0240000486373901, 0.0, 0.0, 0.0, 0.0, 0.0, 1.66977168446705E9, 0.0, 2022-11-29 19:28:04.467
36.0, 23.198599425144494, -119.43931493489072, 45.77637545764446, 110.72908793808892, 0.0, 0.01600000075995922, 1.0240000486373901, 0.0, 0.0, 0.0, 0.0, 0.0, 1.669771684491039E9, 0.0, 2022-11-29 19:28:04.491
36.0, 20.285217359662056, -124.75371277192608, 42.9826701907441, 112.37838381854817, 0.0, 0.01600000075995922, 1.0240000486373901, 0.0, 0.0, 0.0, 0.0, 0.0, 1.669771684491039E9, 0.0, 2022-11-29 19:28:04.491
37.0, 35.30839548166841, -110.78144653746858, 53.94057706091553, 108.54498636396602, 0.0, 0.01600000075995922, 1.0240000486373901, 0.0, 0.0, 0.0, 0.0, 0.0, 1.669771684515045E9, 0.0, 2022-11-29 19:28:04.515
37.0, 25.28920350037515, -133.1946669719182, 49.46391681395471, 108.81799906073138, 0.0, 0.01600000075995922, 1.0240000486373901, 0.0, 0.0, 0.0, 0.0, 0.0, 1.669771684515045E9, 0.0, 2022-11-29 19:28:04.515
38.0, 18.14599458500743, -119.79086553072557, 48.891712120734155, 108.88905715988949, 0.0, 0.01600000075995922, 1.0240000486373901, 0.0, 0.0, 0.0, 0.0, 0.0, 1.669771684539063E9, 0.0, 2022-11-29 19:28:04.539
38.0, 23.35941512323916, -110.53461314039305, 56.962416225112975, 107.99148117052391, 0.0, 0.01600000075995922, 1.0240000486373901, 0.0, 0.0, 0.0, 0.0, 0.0, 1.669771684539063E9, 0.0, 2022-11-29 19:28:04.539
39.0, 19.641954567283392, -108.91149655962363, 46.449557449668646, 103.35026532551274, 0.0, 0.01600000075995922, 1.0240000486373901, 0.0, 0.0, 0.0, 0.0, 0.0, 1.669771684563028E9, 0.0, 2022-11-29 19:28:04.563
39.0, 22.409480534493923, -113.56393210450187, 44.14203917700797, 100.86323185497895, 0.0, 0.01600000075995922, 1.0240000486373901, 0.0, 0.0, 0.0, 0.0, 0.0, 1.669771684563028E9, 0.0, 2022-11-29 19:28:04.563
40.0, 27.607941472902894, -115.0000536874868, 51.57696028891951, 103.05107332905754, 0.0, 0.01600000075995922, 1.008000047877431, 0.0, 0.0, 0.0, 0.0, 0.0, 1.669771684587035E9, 0.0, 2022-11-29 19:28:04.587
40.0, 15.195213519968092, -125.41941496403888, 50.23433620482683, 103.55595982307568, 0.0, 0.01600000075995922, 1.008000047877431, 0.0, 0.0, 0.0, 0.0, 0.0, 1.669771684587035E9, 0.0, 2022-11-29 19:28:04.587
41.0, 25.68937279563397, -125.18006136687472, 49.44895721413195, 105.57924569910392, 0.0, 0.01600000075995922, 1.008000047877431, 0.0, 0.0, 0.0, 0.0, 0.0, 1.669771684611049E9, 0.0, 2022-11-29 19:28:04.611
41.0, 26.781423582695425, -134.10720256110653, 47.93429773207754, 109.17328955652192, 0.0, 0.01600000075995922, 1.008000047877431, 0.0, 0.0, 0.0, 0.0, 0.0, 1.669771684611049E9, 0.0, 2022-11-29 19:28:04.611
42.0, 28.699992259964347, -129.27525181835517, 50.092220006510615, 110.1830625445582, 0.01600000075995922, 0.01600000075995922, 1.008000047877431, 0.0, 0.0, 0.0, 0.0, 0.0, 1.669771684635039E9, 0.0, 2022-11-29 19:28:04.635
42.0, 25.906286993063986, -136.83358962880448, 49.38163901492953, 109.04239305807278, 0.01600000075995922, 0.01600000075995922, 1.008000047877431, 0.0, 0.0, 0.0, 0.0, 0.0, 1.669771684635039E9, 0.0, 2022-11-29 19:28:04.635
43.0, 15.816036912612617, -130.88714869925752, 44.28789527527988, 104.03840691735968, 0.01600000075995922, 0.01600000075995922, 1.008000047877431, 0.0, 0.0, 0.0, 0.0, 0.0, 1.669771684659073E9, 0.0, 2022-11-29 19:28:04.659
43.0, 24.95261250436306, -140.55852998467162, 51.77517498657107, 118.94190824078396, 0.01600000075995922, 0.01600000075995922, 1.008000047877431, 0.0, 0.0, 0.0, 0.0, 0.0, 1.669771684659073E9, 0.0, 2022-11-29 19:28:04.659
44.0, 32.23419771809131, -141.50846457341686, 53.316013768315315, 118.48938034614548, 0.01600000075995922, 0.01600000075995922, 1.008000047877431, 0.0, 0.0, 0.0, 0.0, 0.0, 1.669771684683047E9, 0.0, 2022-11-29 19:28:04.683
44.0, 21.75873794220388, -147.4923045025207, 43.502516284585, 115.71063467906788, 0.01600000075995922, 0.01600000075995922, 1.008000047877431, 0.0, 0.0, 0.0, 0.0, 0.0, 1.669771684683047E9, 0.0, 2022-11-29 19:28:04.683
45.0, 30.001477444544435, -124.45078087551519, 45.36498646251857, 123.12685629120097, 0.01600000075995922, 0.01600000075995922, 1.008000047877431, 0.0, 0.0, 0.0, 0.0, 0.0, 1.669771684707057E9, 0.0, 2022-11-29 19:28:04.707
45.0, 22.618914932012558, -138.00417831493542, 52.81112727429718, 118.88206984149292, 0.01600000075995922, 0.01600000075995922, 1.008000047877431, 0.0, 0.0, 0.0, 0.0, 0.0, 1.669771684707057E9, 0.0, 2022-11-29 19:28:04.707
46.0, 26.328895688056946, -141.93107326840982, 47.75478253420442, 112.64391671540216, 0.01600000075995922, 0.01600000075995922, 1.008000047877431, 0.0, 0.0, 0.0, 0.0, 0.0, 1.669771684731043E9, 0.0, 2022-11-29 19:28:04.731
46.0, 35.37197378091514, -149.2762367813848, 38.60698724258691, 129.25281241862103, 0.01600000075995922, 0.01600000075995922, 1.008000047877431, 0.0, 0.0, 0.0, 0.0, 0.0, 1.669771684731043E9, 0.0, 2022-11-29 19:28:04.731
47.0, 27.34240857604891, -155.49195050774142, 44.901238868013024, 131.84456308791414, 0.01600000075995922, 0.01600000075995922, 1.008000047877431, 0.0, 0.0, 0.0, 0.0, 0.0, 1.669771684755026E9, 0.0, 2022-11-29 19:28:04.755
47.0, 25.629534396342933, -148.37866079201922, 48.65983832348138, 131.16764119593427, 0.01600000075995922, 0.01600000075995922, 1.008000047877431, 0.0, 0.0, 0.0, 0.0, 0.0, 1.669771684755026E9, 0.0, 2022-11-29 19:28:04.755
48.0, 32.95599840953946, -172.24296240927652, 47.78844163380563, 143.81972274603322, 0.01600000075995922, 0.01600000075995922, 1.008000047877431, 0.0, 0.0, 0.0, 0.0, 0.0, 1.669771684779046E9, 0.0, 2022-11-29 19:28:04.779
48.0, 33.195352006703615, -141.22423217678443, 48.74585602246225, 109.87639074819162, 0.01600000075995922, 0.01600000075995922, 1.008000047877431, 0.0, 0.0, 0.0, 0.0, 0.0, 1.669771684779046E9, 0.0, 2022-11-29 19:28:04.779
49.0, 22.622654831968248, -152.6421467415057, 50.58962670061737, 124.88460927037522, 0.01600000075995922, 0.01600000075995922, 1.008000047877431, 0.0, 0.0, 0.0, 0.0, 0.0, 1.669771684803054E9, 0.0, 2022-11-29 19:28:04.803
49.0, 16.765971501357853, -173.20037679793313, 50.76166209857911, 128.119622732047, 0.01600000075995922, 0.01600000075995922, 1.008000047877431, 0.0, 0.0, 0.0, 0.0, 0.0, 1.669771684803054E9, 0.0, 2022-11-29 19:28:04.803
50.0, 22.15516733750701, -165.91879158420488, 70.20914186816663, 139.89282779255882, 0.01600000075995922, 0.01600000075995922, 1.0240000486373901, 0.0, 0.0, 0.0, 0.0, 0.0, 1.669771684827053E9, 0.0, 2022-11-29 19:28:04.827
50.0, 20.09448246192187, -176.4690493592061, 67.86422459594905, 141.56082317279652, 0.01600000075995922, 0.01600000075995922, 1.0240000486373901, 0.0, 0.0, 0.0, 0.0, 0.0, 1.669771684827053E9, 0.0, 2022-11-29 19:28:04.827
51.0, 21.115475149825215, -187.8907038238831, 63.832612443715334, 137.33473622286692, 0.01600000075995922, 0.03200000151991844, 1.0240000486373901, 0.0, 0.0, 0.0, 0.0, 0.0, 1.669771684851053E9, 0.0, 2022-11-29 19:28:04.851
51.0, 16.51539820432663, -187.02678693411872, 74.54742581676692, 149.0107038845308, 0.01600000075995922, 0.03200000151991844, 1.0240000486373901, 0.0, 0.0, 0.0, 0.0, 0.0, 1.669771684851053E9, 0.0, 2022-11-29 19:28:04.851
52.0, 29.092681755311787, -192.07939177425578, 71.66396295093, 153.95485162595287, 0.0, 0.03200000151991844, 1.0240000486373901, 0.0, 0.0, 0.0, 0.0, 0.0, 1.66977168487504E9, 0.0, 2022-11-29 19:28:04.875
52.0, 27.31248937640339, -206.73605970060453, 71.51062705274671, 167.96451685996726, 0.0, 0.03200000151991844, 1.0240000486373901, 0.0, 0.0, 0.0, 0.0, 0.0, 1.66977168487504E9, 0.0, 2022-11-29 19:28:04.875
53.0, 23.849342017434537, -214.14106161287054, 72.04169284645468, 170.05512093519792, 0.0, 0.03200000151991844, 1.0240000486373901, 0.0, 0.0, 0.0, 0.0, 0.0, 1.669771684899043E9, 0.0, 2022-11-29 19:28:04.899
53.0, 26.467271986417472, -216.72907238220796, 78.17512877378613, 163.96282390737906, 0.0, 0.03200000151991844, 1.0240000486373901, 0.0, 0.0, 0.0, 0.0, 0.0, 1.669771684899043E9, 0.0, 2022-11-29 19:28:04.899
54.0, 34.466917991638184, -228.3115425449796, 80.04507875163108, 182.30703319003806, 0.0, 0.03200000151991844, 1.0240000486373901, 0.0, 0.0, 0.0, 0.0, 0.0, 1.669771684923048E9, 0.0, 2022-11-29 19:28:04.923
54.0, 23.527710621245205, -242.88967257225886, 67.89040389563888, 187.94306242326275, 0.0, 0.03200000151991844, 1.0240000486373901, 0.0, 0.0, 0.0, 0.0, 0.0, 1.669771684923048E9, 0.0, 2022-11-29 19:28:04.923
55.0, 26.714105383493006, -251.52510156994686, 78.2200075732544, 203.54218513844535, 0.0, 0.03200000151991844, 1.0240000486373901, 0.0, 0.0, 0.0, 0.0, 0.0, 1.66977168494704E9, 0.0, 2022-11-29 19:28:04.947
55.0, 28.13900726661086, -260.19792956719175, 82.10576362721622, 218.28113086381927, 0.0, 0.03200000151991844, 1.0240000486373901, 0.0, 0.0, 0.0, 0.0, 0.0, 1.66977168494704E9, 0.0, 2022-11-29 19:28:04.947
56.0, 26.874921081587672, -269.6561365551315, 74.6297036157921, 216.50467838486657, 0.0, 0.03200000151991844, 1.0240000486373901, 0.0, 0.0, 0.0, 0.0, 0.0, 1.669771684971027E9, 0.0, 2022-11-29 19:28:04.971
56.0, 41.643786006607115, -281.2909653172828, 75.57215840462595, 229.99075762508437, 0.0, 0.03200000151991844, 1.0240000486373901, 0.0, 0.0, 0.0, 0.0, 0.0, 1.669771684971027E9, 0.0, 2022-11-29 19:28:04.971
57.0, 24.94513270445168, -273.60921080829576, 84.78727189544588, 233.33796808542684, 0.0, 0.03200000151991844, 1.0240000486373901, 0.0, 0.0, 0.0, 0.0, 0.0, 1.669771684995005E9, 0.0, 2022-11-29 19:28:04.995
57.0, 33.34494800493121, -288.01904533756897, 67.55755279958248, 231.48297770740464, 0.0, 0.03200000151991844, 1.0240000486373901, 0.0, 0.0, 0.0, 0.0, 0.0, 1.669771684995005E9, 0.0, 2022-11-29 19:28:04.995
58.0, 32.65680641308427, -295.81299684522673, 78.47058087028563, 240.58589419955388, 0.0, 0.03200000151991844, 1.0240000486373901, 0.0, 0.0, 0.0, 0.0, 0.0, 1.669771685019018E9, 0.0, 2022-11-29 19:28:05.019
58.0, 37.84030775167048, -309.100861387793, 90.76363202463835, 236.04191575339064, 0.0, 0.03200000151991844, 1.0240000486373901, 0.0, 0.0, 0.0, 0.0, 0.0, 1.669771685019018E9, 0.0, 2022-11-29 19:28:05.019
59.0, 36.62110036611557, -303.25165785709396, 82.23292022570968, 241.01598269445822, 0.0, 0.03200000151991844, 1.0240000486373901, 0.0, 0.0, 0.0, 0.0, 0.0, 1.669771685043042E9, 0.0, 2022-11-29 19:28:05.043
59.0, 16.85198920033872, -304.6429006406106, 80.76313954312354, 244.70726395072415, 0.0, 0.03200000151991844, 1.0240000486373901, 0.0, 0.0, 0.0, 0.0, 0.0, 1.669771685043042E9, 0.0, 2022-11-29 19:28:05.043
60.0, 19.34650247078389, -307.9153131018393, 82.80886481888592, 252.97618275275454, 0.0, 0.03200000151991844, 1.008000047877431, 0.0, 0.0, 0.0, 0.0, 0.0, 1.669771685067032E9, 0.0, 2022-11-29 19:28:05.067
60.0, 24.709519007243216, -317.1005073930137, 83.33245081268251, 272.28528622398153, 0.0, 0.03200000151991844, 1.008000047877431, 0.0, 0.0, 0.0, 0.0, 0.0, 1.669771685067032E9, 0.0, 2022-11-29 19:28:05.067
61.0, -0.482447094283998, -328.66801795596257, 90.20264703128487, 273.16416271356866, 0.0, 0.03200000151991844, 1.008000047877431, 0.0, 0.0, 0.0, 0.0, 0.0, 1.669771685091046E9, 0.0, 2022-11-29 19:28:05.091
61.0, 36.58744126651436, -337.01547465706244, 86.36924957670271, 260.82997265970334, 0.0, 0.03200000151991844, 1.008000047877431, 0.0, 0.0, 0.0, 0.0, 0.0, 1.669771685091046E9, 0.0, 2022-11-29 19:28:05.091
62.0, 41.85696030408144, -297.7577448221855, 64.57685253489763, 263.15619043214247, 0.01600000075995922, 0.03200000151991844, 1.008000047877431, 0.0, 0.0, 0.0, 0.0, 0.0, 1.66977168511504E9, 0.0, 2022-11-29 19:28:05.115
62.0, 41.3520738100633, -336.7013230607845, 70.51207376457751, 263.5563597274013, 0.01600000075995922, 0.03200000151991844, 1.008000047877431, 0.0, 0.0, 0.0, 0.0, 0.0, 1.66977168511504E9, 0.0, 2022-11-29 19:28:05.115
63.0, 46.95818384364247, -308.95874518947676, 58.8061869032681, 268.2125351722352, 0.01600000075995922, 0.03200000151991844, 1.008000047877431, 0.0, 0.0, 0.0, 0.0, 0.0, 1.669771685139045E9, 0.0, 2022-11-29 19:28:05.139
63.0, 33.04949590843171, -286.9269945505075, 57.56080021802336, 256.11769871553406, 0.01600000075995922, 0.03200000151991844, 1.008000047877431, 0.0, 0.0, 0.0, 0.0, 0.0, 1.669771685139045E9, 0.0, 2022-11-29 19:28:05.139
64.0, 25.113428202457726, -294.1898802644573, 57.2129895221442, 257.23592880228534, 0.01600000075995922, 0.03200000151991844, 1.008000047877431, 0.0, 0.0, 0.0, 0.0, 0.0, 1.669771685163037E9, 0.0, 2022-11-29 19:28:05.163
64.0, 45.81377445720136, -310.4285258720629, 59.337252696976066, 263.46286222850904, 0.01600000075995922, 0.03200000151991844, 1.008000047877431, 0.0, 0.0, 0.0, 0.0, 0.0, 1.669771685163037E9, 0.0, 2022-11-29 19:28:05.163
65.0, 49.42277791444212, -323.4957363172434, 66.43558281287551, 266.08453209744766, 0.01600000075995922, 0.03200000151991844, 1.008000047877431, 0.0, 0.0, 0.0, 0.0, 0.0, 1.669771685187028E9, 0.0, 2022-11-29 19:28:05.187
65.0, 40.18148512393236, -307.1187144112773, 67.4378760010004, 255.8446860187687, 0.01600000075995922, 0.03200000151991844, 1.008000047877431, 0.0, 0.0, 0.0, 0.0, 0.0, 1.669771685187028E9, 0.0, 2022-11-29 19:28:05.187
66.0, 40.402139221318066, -298.5393839129247, 62.45632926002145, 240.7280103978701, 0.01600000075995922, 0.03200000151991844, 1.008000047877431, 0.0, 0.0, 0.0, 0.0, 0.0, 1.669771685211037E9, 0.0, 2022-11-29 19:28:05.211
66.0, 41.15759901236743, -305.99674442457035, 62.142177663743496, 258.1073254919611, 0.01600000075995922, 0.03200000151991844, 1.008000047877431, 0.0, 0.0, 0.0, 0.0, 0.0, 1.669771685211037E9, 0.0, 2022-11-29 19:28:05.211
67.0, 38.62194684240967, -305.566655929666, 71.05061935819685, 262.8869176353328, 0.01600000075995922, 0.03200000151991844, 1.008000047877431, 0.0, 0.0, 0.0, 0.0, 0.0, 1.669771685235034E9, 0.0, 2022-11-29 19:28:05.235
67.0, 30.97011153306812, -295.3006305512972, 69.143270380795, 240.23434360371903, 0.01600000075995922, 0.03200000151991844, 1.008000047877431, 0.0, 0.0, 0.0, 0.0, 0.0, 1.669771685235034E9, 0.0, 2022-11-29 19:28:05.235
68.0, 30.857914534397423, -304.5269637419842, 64.39359743706882, 243.1327660693787, 0.01600000075995922, 0.03200000151991844, 1.008000047877431, 0.0, 0.0, 0.0, 0.0, 0.0, 1.669771685259051E9, 0.0, 2022-11-29 19:28:05.259
68.0, 41.06036161351949, -292.6303419829346, 66.81705260835588, 249.85336628975347, 0.01600000075995922, 0.03200000151991844, 1.008000047877431, 0.0, 0.0, 0.0, 0.0, 0.0, 1.669771685259051E9, 0.0, 2022-11-29 19:28:05.259
69.0, 25.599615196697414, -299.47809880180284, 61.738268468528986, 247.2129969210364, 0.01600000075995922, 0.03200000151991844, 1.008000047877431, 0.0, 0.0, 0.0, 0.0, 0.0, 1.669771685283041E9, 0.0, 2022-11-29 19:28:05.283
69.0, 30.62604073714465, -307.59368170564994, 71.00948045868427, 246.60339322825894, 0.01600000075995922, 0.03200000151991844, 1.008000047877431, 0.0, 0.0, 0.0, 0.0, 0.0, 1.669771685283041E9, 0.0, 2022-11-29 19:28:05.283
70.0, 37.85900725144893, -320.3990991539322, 80.8528971420601, 259.2479949784465, 0.01600000075995922, 0.03200000151991844, 1.008000047877431, 0.0, 0.0, 0.0, 0.0, 0.0, 1.669771685307065E9, 0.0, 2022-11-29 19:28:05.307
70.0, 41.35955360997468, -316.59936079895124, 63.96724884212017, 253.5147283463739, 0.01600000075995922, 0.03200000151991844, 1.008000047877431, 0.0, 0.0, 0.0, 0.0, 0.0, 1.669771685307065E9, 0.0, 2022-11-29 19:28:05.307
71.0, 34.87456708680838, -295.43526694970205, 51.99956898391247, 257.5089414990507, 0.01600000075995922, 0.01600000075995922, 1.008000047877431, 0.0, 0.0, 0.0, 0.0, 0.0, 1.669771685331062E9, 0.0, 2022-11-29 19:28:05.331
71.0, 25.872627893462777, -289.61972251860425, 55.754428539425135, 248.46212350623682, 0.01600000075995922, 0.01600000075995922, 1.008000047877431, 0.0, 0.0, 0.0, 0.0, 0.0, 1.669771685331062E9, 0.0, 2022-11-29 19:28:05.331
72.0, 22.701192731037736, -294.61996875936165, 60.137591287493706, 250.41061138315126, 0.01600000075995922, 0.01600000075995922, 1.008000047877431, 0.0, 0.0, 0.0, 0.0, 0.0, 1.669771685355064E9, 0.0, 2022-11-29 19:28:05.355
72.0, 20.412373958155513, -307.62360090529546, 65.28369362652302, 255.6202920214273, 0.01600000075995922, 0.01600000075995922, 1.008000047877431, 0.0, 0.0, 0.0, 0.0, 0.0, 1.669771685355064E9, 0.0, 2022-11-29 19:28:05.355
73.0, 25.37896109931171, -308.4201995958574, 58.48455550707877, 253.5109884464182, 0.01600000075995922, 0.01600000075995922, 1.008000047877431, 0.0, 0.0, 0.0, 0.0, 0.0, 1.669771685379025E9, 0.0, 2022-11-29 19:28:05.379
73.0, 42.3169679986313, -301.6846397756599, 58.48829540703446, 258.78798728389665, 0.01600000075995922, 0.01600000075995922, 1.008000047877431, 0.0, 0.0, 0.0, 0.0, 0.0, 1.669771685379025E9, 0.0, 2022-11-29 19:28:05.379
74.0, 37.238183858804405, -307.7544974037446, 59.26993449777365, 248.41724470676854, 0.01600000075995922, 0.01600000075995922, 1.008000047877431, 0.0, 0.0, 0.0, 0.0, 0.0, 1.669771685403038E9, 0.0, 2022-11-29 19:28:05.403
74.0, 36.793135764077306, -312.41441274853423, 51.87989218533039, 246.58843362843618, 0.01600000075995922, 0.01600000075995922, 1.008000047877431, 0.0, 0.0, 0.0, 0.0, 0.0, 1.669771685403038E9, 0.0, 2022-11-29 19:28:05.403
75.0, 37.35412075743079, -316.04211570555344, 74.46888791769743, 262.16885684384033, 0.01600000075995922, 0.01600000075995922, 1.008000047877431, 0.0, 0.0, 0.0, 0.0, 0.0, 1.669771685427044E9, 0.0, 2022-11-29 19:28:05.427
75.0, 37.48875715583563, -305.22258513374254, 61.26704107411206, 260.26524776639417, 0.01600000075995922, 0.01600000075995922, 1.008000047877431, 0.0, 0.0, 0.0, 0.0, 0.0, 1.669771685427044E9, 0.0, 2022-11-29 19:28:05.427
76.0, 41.77094260510057, -300.1176216942258, 54.090173059143126, 248.8735125013627, 0.01600000075995922, 0.01600000075995922, 1.008000047877431, 0.0, 0.0, 0.0, 0.0, 0.0, 1.669771685451034E9, 0.0, 2022-11-29 19:28:05.451
76.0, 22.461839133873582, -293.77101146942005, 50.79906109813601, 251.8803920657374, 0.01600000075995922, 0.01600000075995922, 1.008000047877431, 0.0, 0.0, 0.0, 0.0, 0.0, 1.669771685451034E9, 0.0, 2022-11-29 19:28:05.451
77.0, 31.86394762247801, -293.1165289771743, 62.42267016042024, 256.0728199160658, 0.01600000075995922, 0.01600000075995922, 1.008000047877431, 0.0, 0.0, 0.0, 0.0, 0.0, 1.669771685475064E9, 0.0, 2022-11-29 19:28:05.475
77.0, 33.217791406437755, -295.47266594925895, 65.86711801961064, 253.802700642962, 0.01600000075995922, 0.01600000075995922, 1.008000047877431, 0.0, 0.0, 0.0, 0.0, 0.0, 1.669771685475064E9, 0.0, 2022-11-29 19:28:05.475
78.0, 35.4991303794086, -295.0762365539558, 62.31047316174954, 255.74370871996507, 0.01600000075995922, 0.01600000075995922, 1.008000047877431, 0.0, 0.0, 0.0, 0.0, 0.0, 1.66977168549905E9, 0.0, 2022-11-29 19:28:05.499
78.0, 29.986517844721675, -290.442500508856, 63.97472864203155, 249.2138433973305, 0.01600000075995922, 0.01600000075995922, 1.008000047877431, 0.0, 0.0, 0.0, 0.0, 0.0, 1.66977168549905E9, 0.0, 2022-11-29 19:28:05.499
79.0, 32.039722920395434, -290.99600570229813, 71.33485175482929, 252.11226586299017, 0.01600000075995922, 0.01600000075995922, 1.008000047877431, 0.0, 0.0, 0.0, 0.0, 0.0, 1.669771685523035E9, 0.0, 2022-11-29 19:28:05.523
79.0, 32.9036398101598, -309.85632117884234, 74.12855702172965, 266.5931584914215, 0.01600000075995922, 0.01600000075995922, 1.008000047877431, 0.0, 0.0, 0.0, 0.0, 0.0, 1.669771685523035E9, 0.0, 2022-11-29 19:28:05.523
80.0, 39.41480563301593, -283.8266174872406, 72.46430154144764, 259.23677527857944, 0.01600000075995922, 0.01600000075995922, 1.0240000486373901, 0.0, 0.0, 0.0, 0.0, 0.0, 1.669771685547074E9, 0.0, 2022-11-29 19:28:05.547
80.0, 30.95515193324536, -281.2273870180361, 68.28309339098632, 254.31132703693584, 0.01600000075995922, 0.01600000075995922, 1.0240000486373901, 0.0, 0.0, 0.0, 0.0, 0.0, 1.669771685547074E9, 0.0, 2022-11-29 19:28:05.547
81.0, 24.466425510123372, -280.2176140299998, 66.83575210813433, 239.38538631377742, 0.01600000075995922, 0.03200000151991844, 1.0240000486373901, 0.0, 0.0, 0.0, 0.0, 0.0, 1.66977168557105E9, 0.0, 2022-11-29 19:28:05.571
81.0, 31.269303529523313, -283.23945319419727, 80.23581364937127, 251.33436667220667, 0.01600000075995922, 0.03200000151991844, 1.0240000486373901, 0.0, 0.0, 0.0, 0.0, 0.0, 1.66977168557105E9, 0.0, 2022-11-29 19:28:05.571
82.0, 27.78371677082032, -280.71876062406227, 77.98065397609025, 249.31482069613412, 0.0, 0.03200000151991844, 1.0240000486373901, 0.0, 0.0, 0.0, 0.0, 0.0, 1.669771685595028E9, 0.0, 2022-11-29 19:28:05.595
82.0, 34.07422849629074, -279.35743704019114, 64.56563283503056, 243.51797576481476, 0.0, 0.03200000151991844, 1.0240000486373901, 0.0, 0.0, 0.0, 0.0, 0.0, 1.669771685595028E9, 0.0, 2022-11-29 19:28:05.595
83.0, 21.448326245881617, -276.5151130738668, 72.34836464282125, 248.2452093088068, 0.0, 0.03200000151991844, 1.0240000486373901, 0.0, 0.0, 0.0, 0.0, 0.0, 1.669771685619058E9, 0.0, 2022-11-29 19:28:05.619
83.0, 29.646186948753893, -275.90550938108936, 76.39119649492204, 252.57601345749572, 0.0, 0.03200000151991844, 1.0240000486373901, 0.0, 0.0, 0.0, 0.0, 0.0, 1.669771685619058E9, 0.0, 2022-11-29 19:28:05.619
84.0, 33.40478640422225, -281.05535162007436, 76.14436309784651, 257.90163099439815, 0.0, 0.03200000151991844, 1.0240000486373901, 0.0, 0.0, 0.0, 0.0, 0.0, 1.669771685643087E9, 0.0, 2022-11-29 19:28:05.643
84.0, 24.002677915617824, -287.9405074384995, 72.34462474286556, 246.25558253237978, 0.0, 0.03200000151991844, 1.0240000486373901, 0.0, 0.0, 0.0, 0.0, 0.0, 1.669771685643087E9, 0.0, 2022-11-29 19:28:05.643
85.0, 35.44677178002894, -277.0760980672203, 69.46864167694002, 244.15749865723774, 0.0, 0.03200000151991844, 1.0240000486373901, 0.0, 0.0, 0.0, 0.0, 0.0, 1.669771685667061E9, 0.0, 2022-11-29 19:28:05.667
85.0, 35.641246577724814, -276.4851938742213, 68.36163129005581, 250.76216197898611, 0.0, 0.03200000151991844, 1.0240000486373901, 0.0, 0.0, 0.0, 0.0, 0.0, 1.669771685667061E9, 0.0, 2022-11-29 19:28:05.667
86.0, 29.548949549905956, -281.5864174137823, 64.02708724141121, 245.23084994452074, 0.0, 0.03200000151991844, 1.0240000486373901, 0.0, 0.0, 0.0, 0.0, 0.0, 1.669771685691045E9, 0.0, 2022-11-29 19:28:05.691
86.0, 43.86154668033123, -272.16560942539945, 69.8501114724204, 228.36016124440357, 0.0, 0.03200000151991844, 1.0240000486373901, 0.0, 0.0, 0.0, 0.0, 0.0, 1.669771685691045E9, 0.0, 2022-11-29 19:28:05.691
87.0, 51.44980369042605, -277.1097571668215, 72.6999152386561, 243.23000346822664, 0.0, 0.03200000151991844, 1.0240000486373901, 0.0, 0.0, 0.0, 0.0, 0.0, 1.669771685715058E9, 0.0, 2022-11-29 19:28:05.715
87.0, 38.56584834307432, -277.20325466571376, 68.2569140912965, 238.8692801198922, 0.0, 0.03200000151991844, 1.0240000486373901, 0.0, 0.0, 0.0, 0.0, 0.0, 1.669771685715058E9, 0.0, 2022-11-29 19:28:05.715
88.0, 30.016437044367194, -270.5948514440097, 70.6280106632039, 245.29816814372316, 0.0, 0.03200000151991844, 1.0240000486373901, 0.0, 0.0, 0.0, 0.0, 0.0, 1.669771685739037E9, 0.0, 2022-11-29 19:28:05.739
88.0, 39.07821463700384, -271.9337356281467, 74.09489792212844, 241.70786418626085, 0.0, 0.03200000151991844, 1.0240000486373901, 0.0, 0.0, 0.0, 0.0, 0.0, 1.669771685739037E9, 0.0, 2022-11-29 19:28:05.739
89.0, 34.377160392701626, -275.0789914908819, 69.89125037193298, 233.1322735878639, 0.0, 0.03200000151991844, 1.0240000486373901, 0.0, 0.0, 0.0, 0.0, 0.0, 1.669771685763026E9, 0.0, 2022-11-29 19:28:05.763
89.0, 36.415405868552625, -275.6399764842354, 68.89269708376378, 242.37356637837365, 0.0, 0.03200000151991844, 1.0240000486373901, 0.0, 0.0, 0.0, 0.0, 0.0, 1.669771685763026E9, 0.0, 2022-11-29 19:28:05.763
90.0, 29.8294420465827, -264.12856442062184, 70.5532126640901, 249.15026509808376, 0.0, 0.03200000151991844, 1.008000047877431, 0.0, 0.0, 0.0, 0.0, 0.0, 1.669771685789028E9, 0.0, 2022-11-29 19:28:05.789
90.0, 44.3926124740392, -261.7649476486258, 82.06088482774794, 244.92043824819848, 0.0, 0.03200000151991844, 1.008000047877431, 0.0, 0.0, 0.0, 0.0, 0.0, 1.669771685789028E9, 0.0, 2022-11-29 19:28:05.789
91.0, 35.71230467688292, -267.86846437631175, 68.42894948925823, 241.7639626855962, 0.0, 0.01600000075995922, 1.008000047877431, 0.0, 0.0, 0.0, 0.0, 0.0, 1.669771685813035E9, 0.0, 2022-11-29 19:28:05.813
91.0, 38.446171544492245, -270.6958287428133, 67.44535580091178, 242.0220157825388, 0.0, 0.01600000075995922, 1.008000047877431, 0.0, 0.0, 0.0, 0.0, 0.0, 1.669771685813035E9, 0.0, 2022-11-29 19:28:05.813
92.0, 50.97109649609774, -256.1775371148251, 82.43113492336124, 236.1653324519284, 0.01600000075995922, 0.01600000075995922, 1.008000047877431, 0.0, 0.0, 0.0, 0.0, 0.0, 1.669771685837049E9, 0.0, 2022-11-29 19:28:05.837
92.0, 36.26954977028072, -256.3981912122108, 81.58217763341963, 237.2835625386797, 0.01600000075995922, 0.01600000075995922, 1.008000047877431, 0.0, 0.0, 0.0, 0.0, 0.0, 1.669771685837049E9, 0.0, 2022-11-29 19:28:05.837
93.0, 44.97977676708251, -268.28359327139333, 82.85000371839851, 241.00102309463546, 0.01600000075995922, 0.01600000075995922, 1.008000047877431, 0.0, 0.0, 0.0, 0.0, 0.0, 1.669771685861048E9, 0.0, 2022-11-29 19:28:05.861
93.0, 47.38453243859112, -256.5814463100396, 86.83673707116395, 245.71703693876043, 0.01600000075995922, 0.01600000075995922, 1.008000047877431, 0.0, 0.0, 0.0, 0.0, 0.0, 1.669771685861048E9, 0.0, 2022-11-29 19:28:05.861
94.0, 42.32444779854268, -263.38806422939524, 92.61862240266055, 250.30963408434764, 0.01600000075995922, 0.01600000075995922, 1.008000047877431, 0.0, 0.0, 0.0, 0.0, 0.0, 1.669771685885029E9, 0.0, 2022-11-29 19:28:05.885
94.0, 36.404186168685555, -251.50266217021272, 92.20723340753466, 249.42701769480482, 0.01600000075995922, 0.01600000075995922, 1.008000047877431, 0.0, 0.0, 0.0, 0.0, 0.0, 1.669771685885029E9, 0.0, 2022-11-29 19:28:05.885
95.0, 43.311781386844814, -250.00670218793675, 87.98488635756075, 240.27174260327592, 0.01600000075995922, 0.01600000075995922, 1.008000047877431, 0.0, 0.0, 0.0, 0.0, 0.0, 1.669771685909018E9, 0.0, 2022-11-29 19:28:05.909
95.0, 40.76864941697568, -252.83406655443832, 90.25874553062022, 242.37730627832934, 0.01600000075995922, 0.01600000075995922, 1.008000047877431, 0.0, 0.0, 0.0, 0.0, 0.0, 1.669771685909018E9, 0.0, 2022-11-29 19:28:05.909
96.0, 44.6132665714249, -251.92527086520568, 93.6358751906082, 243.86204656073824, 0.01600000075995922, 0.01600000075995922, 1.008000047877431, 0.0, 0.0, 0.0, 0.0, 0.0, 1.669771685933079E9, 0.0, 2022-11-29 19:28:05.933
96.0, 48.899191920645535, -248.9146514008753, 84.60027689766139, 238.70846442179754, 0.01600000075995922, 0.01600000075995922, 1.008000047877431, 0.0, 0.0, 0.0, 0.0, 0.0, 1.669771685933079E9, 0.0, 2022-11-29 19:28:05.933
97.0, 55.26076174527407, -247.15315852174535, 86.35428997687995, 243.57033436419442, 0.01600000075995922, 0.01600000075995922, 1.008000047877431, 0.0, 0.0, 0.0, 0.0, 0.0, 1.669771685957027E9, 0.0, 2022-11-29 19:28:05.957
97.0, 44.57960747182369, -250.75468217907473, 89.19661394320428, 235.15929936384782, 0.01600000075995922, 0.01600000075995922, 1.008000047877431, 0.0, 0.0, 0.0, 0.0, 0.0, 1.669771685957027E9, 0.0, 2022-11-29 19:28:05.957
98.0, 42.26086949929595, -258.4813154875301, 81.52607913408428, 242.26510927965865, 0.01600000075995922, 0.01600000075995922, 1.008000047877431, 0.0, 0.0, 0.0, 0.0, 0.0, 1.669771685981036E9, 0.0, 2022-11-29 19:28:05.981
98.0, 49.56489411275834, -252.93878375319764, 83.34367051254958, 243.8358672610484, 0.01600000075995922, 0.01600000075995922, 1.008000047877431, 0.0, 0.0, 0.0, 0.0, 0.0, 1.669771685981036E9, 0.0, 2022-11-29 19:28:05.981
99.0, 44.73668326996267, -256.34957251278684, 82.83878401853144, 247.3251939197071, 0.01600000075995922, 0.01600000075995922, 1.008000047877431, 0.0, 0.0, 0.0, 0.0, 0.0, 1.669771686005036E9, 0.0, 2022-11-29 19:28:06.005
99.0, 42.33940739836544, -255.0705267279409, 83.2987917130813, 240.59711389942095, 0.01600000075995922, 0.01600000075995922, 1.008000047877431, 0.0, 0.0, 0.0, 0.0, 0.0, 1.669771686005036E9, 0.0, 2022-11-29 19:28:06.005
100.0, 49.02634851913899, -252.20202346192673, 80.8528971420601, 242.58674067584798, 0.01600000075995922, 0.01600000075995922, 1.0240000486373901, 0.0, 0.0, 0.0, 0.0, 0.0, 1.669771686029019E9, 0.0, 2022-11-29 19:28:06.029
100.0, 36.74451706465334, -250.9940357762389, 83.0407386161387, 241.40867218980566, 0.01600000075995922, 0.01600000075995922, 1.0240000486373901, 0.0, 0.0, 0.0, 0.0, 0.0, 1.669771686029019E9, 0.0, 2022-11-29 19:28:06.029
0.0, 34.87830698676407, -253.80831049289554, 75.41882250644267, 235.0340127153322, 0.01600000075995922, 0.01600000075995922, 1.0240000486373901, 0.0, 0.0, 0.0, 0.0, 0.0, 1.669771686053042E9, 0.0, 2022-11-29 19:28:06.053
1.0, 44.70302417036146, -247.81325086392462, 79.72718725539744, 234.0691185267642, 0.01600000075995922, 0.01600000075995922, 1.0240000486373901, 0.0, 0.0, 0.0, 0.0, 0.0, 1.669771686077006E9, 0.0, 2022-11-29 19:28:06.077
1.0, 32.032243120484054, -256.3402227628976, 73.75082712620497, 230.8528045648709, 0.01600000075995922, 0.01600000075995922, 1.0240000486373901, 0.0, 0.0, 0.0, 0.0, 0.0, 1.669771686077006E9, 0.0, 2022-11-29 19:28:06.077
2.0, 30.93645243346691, -259.459299325943, 81.85893023014069, 227.04558640997857, 0.01600000075995922, 0.01600000075995922, 1.0240000486373901, 0.0, 0.0, 0.0, 0.0, 0.0, 1.669771686101044E9, 0.0, 2022-11-29 19:28:06.101
2.0, 37.174605559557676, -259.0179911311716, 75.02987291105092, 228.36203119438142, 0.01600000075995922, 0.01600000075995922, 1.0240000486373901, 0.0, 0.0, 0.0, 0.0, 0.0, 1.669771686101044E9, 0.0, 2022-11-29 19:28:06.101
3.0, 31.957445121370256, -255.0798764778301, 77.38600988313556, 229.68221587873995, 0.01600000075995922, 0.01600000075995922, 1.0240000486373901, 0.0, 0.0, 0.0, 0.0, 0.0, 1.669771686125043E9, 0.0, 2022-11-29 19:28:06.125
3.0, 18.714459378272295, -257.4173139501363, 76.4061560947448, 227.61031130328774, 0.01600000075995922, 0.01600000075995922, 1.0240000486373901, 0.0, 0.0, 0.0, 0.0, 0.0, 1.669771686125043E9, 0.0, 2022-11-29 19:28:06.125
4.0, 32.91485951002687, -250.69297382980585, 74.09489792212844, 227.82722550071776, 0.01600000075995922, 0.01600000075995922, 1.0240000486373901, 0.0, 0.0, 0.0, 0.0, 0.0, 1.669771686149062E9, 0.0, 2022-11-29 19:28:06.149
4.0, 32.828841811046004, -249.70564024150372, 81.64201603271067, 220.6615771856159, 0.01600000075995922, 0.01600000075995922, 1.0240000486373901, 0.0, 0.0, 0.0, 0.0, 0.0, 1.669771686149062E9, 0.0, 2022-11-29 19:28:06.149
5.0, 15.789857612922788, -246.36964948102832, 80.03385905176401, 230.7368676662445, 0.01600000075995922, 0.01600000075995922, 1.0240000486373901, 0.0, 0.0, 0.0, 0.0, 0.0, 1.669771686173018E9, 0.0, 2022-11-29 19:28:06.173
5.0, 23.983978415839374, -251.99445901438594, 72.86447083670646, 221.00564798153937, 0.01600000075995922, 0.01600000075995922, 1.0240000486373901, 0.0, 0.0, 0.0, 0.0, 0.0, 1.669771686173018E9, 0.0, 2022-11-29 19:28:06.173
6.0, 28.026810267940164, -245.03076529689133, 78.53789906948805, 224.24440134316683, 0.01600000075995922, 0.01600000075995922, 1.0240000486373901, 0.0, 0.0, 0.0, 0.0, 0.0, 1.669771686197019E9, 0.0, 2022-11-29 19:28:06.197
6.0, 35.15131968352944, -237.51356638595462, 83.5942438095808, 226.19662912003696, 0.01600000075995922, 0.01600000075995922, 1.0240000486373901, 0.0, 0.0, 0.0, 0.0, 0.0, 1.669771686197019E9, 0.0, 2022-11-29 19:28:06.197
7.0, 29.986517844721675, -248.66220815386623, 83.32871091272682, 223.64975725021213, 0.01600000075995922, 0.01600000075995922, 1.0240000486373901, 0.0, 0.0, 0.0, 0.0, 0.0, 1.669771686221007E9, 0.0, 2022-11-29 19:28:06.221
7.0, 33.41600610408932, -250.98468602634966, 88.58701025042683, 229.30822588317096, 0.01600000075995922, 0.01600000075995922, 1.0240000486373901, 0.0, 0.0, 0.0, 0.0, 0.0, 1.669771686221007E9, 0.0, 2022-11-29 19:28:06.221
8.0, 27.192812577821314, -241.98274683300406, 79.20734116155654, 223.33934555388987, 0.01600000075995922, 0.01600000075995922, 1.0240000486373901, 0.0, 0.0, 0.0, 0.0, 0.0, 1.66977168624507E9, 0.0, 2022-11-29 19:28:06.245
8.0, 36.54256246704608, -243.9686337094754, 78.3322045719251, 219.1020389040932, 0.01600000075995922, 0.01600000075995922, 1.0240000486373901, 0.0, 0.0, 0.0, 0.0, 0.0, 1.66977168624507E9, 0.0, 2022-11-29 19:28:06.245
9.0, 32.63062711339444, -248.09000346064568, 71.67144275084138, 228.23487459588796, 0.01600000075995922, 0.01600000075995922, 1.0240000486373901, 0.0, 0.0, 0.0, 0.0, 0.0, 1.66977168626904E9, 0.0, 2022-11-29 19:28:06.269
9.0, 24.376667911186814, -243.32163101714104, 89.48084633983672, 221.79102697223425, 0.01600000075995922, 0.01600000075995922, 1.0240000486373901, 0.0, 0.0, 0.0, 0.0, 0.0, 1.66977168626904E9, 0.0, 2022-11-29 19:28:06.269
10.0, 24.55618310905993, -243.84147711098194, 86.72454007249326, 222.15379726793617, 0.01600000075995922, 0.01600000075995922, 1.0240000486373901, 0.0, 0.0, 0.0, 0.0, 0.0, 1.669771686293042E9, 0.0, 2022-11-29 19:28:06.293
10.0, 30.098714843392372, -244.4473409038037, 85.40061548817903, 220.08937249239534, 0.01600000075995922, 0.01600000075995922, 1.0240000486373901, 0.0, 0.0, 0.0, 0.0, 0.0, 1.669771686293042E9, 0.0, 2022-11-29 19:28:06.293
11.0, 18.88275487627834, -245.0382450968027, 81.60087713319808, 214.34114626049995, 0.01600000075995922, 0.03200000151991844, 1.0240000486373901, 0.0, 0.0, 0.0, 0.0, 0.0, 1.66977168631702E9, 0.0, 2022-11-29 19:28:06.317
11.0, 27.544363173656166, -239.09180416725576, 80.2582530491054, 215.6987299444154, 0.01600000075995922, 0.03200000151991844, 1.0240000486373901, 0.0, 0.0, 0.0, 0.0, 0.0, 1.66977168631702E9, 0.0, 2022-11-29 19:28:06.317
12.0, 31.02621003240347, -247.9703266620636, 75.8526509013027, 222.23607506696135, 0.0, 0.03200000151991844, 1.0240000486373901, 0.0, 0.0, 0.0, 0.0, 0.0, 1.669771686341045E9, 0.0, 2022-11-29 19:28:06.341
12.0, 27.121754478663206, -253.05285070184618, 74.05749892257154, 227.12412430904806, 0.0, 0.03200000151991844, 1.0240000486373901, 0.0, 0.0, 0.0, 0.0, 0.0, 1.669771686341045E9, 0.0, 2022-11-29 19:28:06.341
13.0, 27.73135817144066, -253.36700229812413, 77.43836848251522, 228.50788729265332, 0.0, 0.03200000151991844, 1.0240000486373901, 0.0, 0.0, 0.0, 0.0, 0.0, 1.669771686365046E9, 0.0, 2022-11-29 19:28:06.365
13.0, 20.229118860326707, -252.17023431230336, 78.21626767329872, 224.60343173891306, 0.0, 0.03200000151991844, 1.0240000486373901, 0.0, 0.0, 0.0, 0.0, 0.0, 1.669771686365046E9, 0.0, 2022-11-29 19:28:06.365
14.0, 32.87746051046997, -253.7522119935602, 82.68918802030385, 231.21557486057281, 0.0, 0.03200000151991844, 1.0240000486373901, 0.0, 0.0, 0.0, 0.0, 0.0, 1.66977168638904E9, 0.0, 2022-11-29 19:28:06.389
14.0, 29.646186948753893, -251.18290072400123, 72.23990754410625, 221.3272793777287, 0.0, 0.03200000151991844, 1.0240000486373901, 0.0, 0.0, 0.0, 0.0, 0.0, 1.66977168638904E9, 0.0, 2022-11-29 19:28:06.389
15.0, 21.29499034769833, -238.69537477195263, 70.51207376457751, 217.96884921751916, 0.0, 0.03200000151991844, 1.0240000486373901, 0.0, 0.0, 0.0, 0.0, 0.0, 1.669771686413047E9, 0.0, 2022-11-29 19:28:06.413
15.0, 16.687433602288365, -251.10436282493174, 68.7730202851817, 218.59715241007507, 0.0, 0.03200000151991844, 1.0240000486373901, 0.0, 0.0, 0.0, 0.0, 0.0, 1.669771686413047E9, 0.0, 2022-11-29 19:28:06.413
16.0, 28.400800263509154, -253.935467091389, 72.53535964060575, 220.5119811873883, 0.0, 0.03200000151991844, 1.0240000486373901, 0.0, 0.0, 0.0, 0.0, 0.0, 1.669771686437033E9, 0.0, 2022-11-29 19:28:06.437
16.0, 24.55244320910424, -250.40126163326204, 77.81983827799559, 223.67593654990196, 0.0, 0.03200000151991844, 1.0240000486373901, 0.0, 0.0, 0.0, 0.0, 0.0, 1.669771686437033E9, 0.0, 2022-11-29 19:28:06.437
17.0, 18.015098086558282, -255.28557097539306, 82.84626381844282, 220.31750638969243, 0.0, 0.03200000151991844, 1.0240000486373901, 0.0, 0.0, 0.0, 0.0, 0.0, 1.66977168646103E9, 0.0, 2022-11-29 19:28:06.461
17.0, 18.785517477430403, -257.6828468469903, 70.04458627011627, 212.18696388602257, 0.0, 0.03200000151991844, 1.0240000486373901, 0.0, 0.0, 0.0, 0.0, 0.0, 1.66977168646103E9, 0.0, 2022-11-29 19:28:06.461
18.0, 18.190873384475708, -248.06756406091154, 70.7364677619189, 211.5399611936882, 0.0, 0.03200000151991844, 1.0240000486373901, 0.0, 0.0, 0.0, 0.0, 0.0, 1.669771686485033E9, 0.0, 2022-11-29 19:28:06.485
18.0, 15.73001921363175, -248.25829895865172, 69.09465168137103, 211.76061529107392, 0.0, 0.03200000151991844, 1.0240000486373901, 0.0, 0.0, 0.0, 0.0, 0.0, 1.669771686485033E9, 0.0, 2022-11-29 19:28:06.485
19.0, 30.723278135992587, -260.8729815091938, 62.961215754039586, 203.18128479272127, 0.0, 0.03200000151991844, 1.0240000486373901, 0.0, 0.0, 0.0, 0.0, 0.0, 1.669771686509036E9, 0.0, 2022-11-29 19:28:06.509
19.0, 15.400908017531037, -245.408495192416, 75.78159280214459, 194.07462840061635, 0.0, 0.03200000151991844, 1.0240000486373901, 0.0, 0.0, 0.0, 0.0, 0.0, 1.669771686509036E9, 0.0, 2022-11-29 19:28:06.509
20.0, 19.26422467175871, -248.43407425656915, 74.13603682164103, 201.29263531509787, 0.0, 0.03200000151991844, 1.0240000486373901, 0.0, 0.0, 0.0, 0.0, 0.0, 1.66977168653306E9, 0.0, 2022-11-29 19:28:06.533
20.0, 26.261577488854527, -248.2246398590505, 73.8854635246098, 199.51992273610085, 0.0, 0.03200000151991844, 1.0240000486373901, 0.0, 0.0, 0.0, 0.0, 0.0, 1.66977168653306E9, 0.0, 2022-11-29 19:28:06.533
21.0, 8.373636000789702, -257.9408999439329, 69.77905337326229, 202.34728710260242, 0.0, 0.03200000151991844, 1.0240000486373901, 0.0, 0.0, 0.0, 0.0, 0.0, 1.669771686557039E9, 0.0, 2022-11-29 19:28:06.557
21.0, 15.157814520411193, -250.13946863636374, 73.60871092788875, 205.01757567096502, 0.0, 0.03200000151991844, 1.0240000486373901, 0.0, 0.0, 0.0, 0.0, 0.0, 1.669771686557039E9, 0.0, 2022-11-29 19:28:06.557
22.0, 11.402954964898527, -256.03355096653104, 74.80547891370952, 206.44621745403856, 0.01600000075995922, 0.03200000151991844, 1.0240000486373901, 0.0, 0.0, 0.0, 0.0, 0.0, 1.669771686581036E9, 0.0, 2022-11-29 19:28:06.581
22.0, 8.721446696668863, -260.24841821659356, 70.34751816652715, 209.52041521761566, 0.01600000075995922, 0.03200000151991844, 1.0240000486373901, 0.0, 0.0, 0.0, 0.0, 0.0, 1.669771686581036E9, 0.0, 2022-11-29 19:28:06.581
23.0, 14.413574429228902, -252.12535551283509, 71.77989984955639, 208.38722553104162, 0.01600000075995922, 0.03200000151991844, 1.0240000486373901, 0.0, 0.0, 0.0, 0.0, 0.0, 1.669771686605031E9, 0.0, 2022-11-29 19:28:06.605
23.0, 23.01160442736, -253.84196959249675, 70.82622536085546, 218.52983421087265, 0.01600000075995922, 0.03200000151991844, 1.0240000486373901, 0.0, 0.0, 0.0, 0.0, 0.0, 1.669771686605031E9, 0.0, 2022-11-29 19:28:06.605
24.0, 17.902901087887585, -252.27869141101837, 69.4013234777376, 211.8054940905422, 0.01600000075995922, 0.03200000151991844, 1.0240000486373901, 0.0, 0.0, 0.0, 0.0, 0.0, 1.669771686629055E9, 0.0, 2022-11-29 19:28:06.629
24.0, 17.506471692584455, -249.06611734908074, 75.36646390706301, 204.65854527521878, 0.01600000075995922, 0.03200000151991844, 1.0240000486373901, 0.0, 0.0, 0.0, 0.0, 0.0, 1.669771686629055E9, 0.0, 2022-11-29 19:28:06.629
25.0, 11.530111563391984, -238.80009197071195, 74.97003451175988, 206.16572495736182, 0.01600000075995922, 0.03200000151991844, 1.0240000486373901, 0.0, 0.0, 0.0, 0.0, 0.0, 1.669771686653067E9, 0.0, 2022-11-29 19:28:06.653
25.0, 12.917614446952939, -247.05405117291957, 72.19128884468228, 202.21265070419759, 0.01600000075995922, 0.03200000151991844, 1.0240000486373901, 0.0, 0.0, 0.0, 0.0, 0.0, 1.669771686653067E9, 0.0, 2022-11-29 19:28:06.653
26.0, 20.973358951509, -241.21606734208763, 74.667102615349, 209.64383191615343, 0.01600000075995922, 0.03200000151991844, 1.0240000486373901, 0.0, 0.0, 0.0, 0.0, 0.0, 1.669771686677049E9, 0.0, 2022-11-29 19:28:06.677
26.0, 28.16892646625638, -237.34901078790426, 79.95532115269452, 206.47613665368408, 0.01600000075995922, 0.03200000151991844, 1.0240000486373901, 0.0, 0.0, 0.0, 0.0, 0.0, 1.669771686677049E9, 0.0, 2022-11-29 19:28:06.677
27.0, 11.144901867955923, -253.99904539063573, 78.79969206638634, 202.30988810304552, 0.01600000075995922, 0.03200000151991844, 1.0240000486373901, 0.0, 0.0, 0.0, 0.0, 0.0, 1.669771686701028E9, 0.0, 2022-11-29 19:28:06.701
27.0, 8.43347440008074, -252.81723700463772, 72.50918034091592, 199.52366263605654, 0.01600000075995922, 0.03200000151991844, 1.0240000486373901, 0.0, 0.0, 0.0, 0.0, 0.0, 1.669771686701028E9, 0.0, 2022-11-29 19:28:06.701
28.0, 19.30910347122699, -235.0414925152436, 85.68858778476715, 197.7285106573254, 0.01600000075995922, 0.03200000151991844, 1.0240000486373901, 0.0, 0.0, 0.0, 0.0, 0.0, 1.669771686725043E9, 0.0, 2022-11-29 19:28:06.725
28.0, 16.751011901535094, -237.09469759091735, 80.30687174852937, 201.67410511057824, 0.01600000075995922, 0.03200000151991844, 1.0240000486373901, 0.0, 0.0, 0.0, 0.0, 0.0, 1.669771686725043E9, 0.0, 2022-11-29 19:28:06.725
29.0, 16.8594690002501, -238.05585187952965, 75.31036540772766, 197.9080258551985, 0.01600000075995922, 0.03200000151991844, 1.0240000486373901, 0.0, 0.0, 0.0, 0.0, 0.0, 1.669771686749054E9, 0.0, 2022-11-29 19:28:06.749
29.0, 15.060577121563256, -236.76184649486095, 76.08078479859978, 205.31302776746452, 0.01600000075995922, 0.03200000151991844, 1.0240000486373901, 0.0, 0.0, 0.0, 0.0, 0.0, 1.669771686749054E9, 0.0, 2022-11-29 19:28:06.749
30.0, 22.039230438880622, -238.702854571864, 85.19492099061608, 209.79342791438103, 0.01600000075995922, 0.03200000151991844, 1.0240000486373901, 0.0, 0.0, 0.0, 0.0, 0.0, 1.669771686773039E9, 0.0, 2022-11-29 19:28:06.773
30.0, 15.29619081877172, -246.3397302813828, 67.54259319975972, 205.10359336994588, 0.01600000075995922, 0.03200000151991844, 1.0240000486373901, 0.0, 0.0, 0.0, 0.0, 0.0, 1.669771686773039E9, 0.0, 2022-11-29 19:28:06.773
31.0, 28.95056555699557, -244.05839130841196, 74.5175066171214, 191.50531713105738, 0.01600000075995922, 0.03200000151991844, 1.0240000486373901, 0.0, 0.0, 0.0, 0.0, 0.0, 1.669771686797083E9, 0.0, 2022-11-29 19:28:06.797
31.0, 34.92318578623235, -253.32960329856724, 74.00514032319188, 208.9893494239077, 0.01600000075995922, 0.03200000151991844, 1.0240000486373901, 0.0, 0.0, 0.0, 0.0, 0.0, 1.669771686797083E9, 0.0, 2022-11-29 19:28:06.797
32.0, 19.421300469897687, -254.54507078416646, 68.26065399125218, 210.37311240751296, 0.01600000075995922, 0.03200000151991844, 1.0240000486373901, 0.0, 0.0, 0.0, 0.0, 0.0, 1.66977168682103E9, 0.0, 2022-11-29 19:28:06.821
32.0, 15.647741414606571, -245.91712158638984, 68.2569140912965, 197.13760646432638, 0.01600000075995922, 0.03200000151991844, 1.0240000486373901, 0.0, 0.0, 0.0, 0.0, 0.0, 1.66977168682103E9, 0.0, 2022-11-29 19:28:06.821
33.0, 27.215251977555454, -242.68584802467376, 74.30059241969138, 205.5075025651604, 0.01600000075995922, 0.03200000151991844, 1.0240000486373901, 0.0, 0.0, 0.0, 0.0, 0.0, 1.669771686845022E9, 0.0, 2022-11-29 19:28:06.845
33.0, 22.689973031170666, -244.12944940757006, 74.68954201508313, 205.17839136905968, 0.01600000075995922, 0.03200000151991844, 1.0240000486373901, 0.0, 0.0, 0.0, 0.0, 0.0, 1.669771686845022E9, 0.0, 2022-11-29 19:28:06.845
34.0, 17.3045170949772, -252.06925701349974, 63.07341275271028, 190.050496048294, 0.01600000075995922, 0.03200000151991844, 1.0240000486373901, 0.0, 0.0, 0.0, 0.0, 0.0, 1.669771686869033E9, 0.0, 2022-11-29 19:28:06.869
34.0, 5.62854943331331, -243.0037395209074, 72.31470554322004, 199.63585963472724, 0.01600000075995922, 0.03200000151991844, 1.0240000486373901, 0.0, 0.0, 0.0, 0.0, 0.0, 1.669771686869033E9, 0.0, 2022-11-29 19:28:06.869
35.0, 16.638814902864397, -260.51395111344755, 75.38516340684146, 206.08718705829233, 0.01600000075995922, 0.03200000151991844, 1.0240000486373901, 0.0, 0.0, 0.0, 0.0, 0.0, 1.66977168689304E9, 0.0, 2022-11-29 19:28:06.893
35.0, 24.9376529045403, -254.66474758274853, 66.9554289067164, 199.49000353645533, 0.01600000075995922, 0.03200000151991844, 1.0240000486373901, 0.0, 0.0, 0.0, 0.0, 0.0, 1.66977168689304E9, 0.0, 2022-11-29 19:28:06.893
36.0, 25.128387802280486, -236.16720240190625, 63.432443148456514, 187.48866457864642, 0.01600000075995922, 0.03200000151991844, 1.0240000486373901, 0.0, 0.0, 0.0, 0.0, 0.0, 1.669771686917071E9, 0.0, 2022-11-29 19:28:06.917
36.0, 17.76826468948275, -227.90202349983156, 69.97352817095816, 189.7176449522376, 0.01600000075995922, 0.03200000151991844, 1.0240000486373901, 0.0, 0.0, 0.0, 0.0, 0.0, 1.669771686917071E9, 0.0, 2022-11-29 19:28:06.917
37.0, 12.020038457587361, -234.53286612126976, 63.48480174783617, 188.89112706203014, 0.01600000075995922, 0.03200000151991844, 1.0240000486373901, 0.0, 0.0, 0.0, 0.0, 0.0, 1.669771686941042E9, 0.0, 2022-11-29 19:28:06.941
37.0, 18.205832984298468, -236.67956869583577, 64.8835243312642, 189.88594045024365, 0.01600000075995922, 0.03200000151991844, 1.0240000486373901, 0.0, 0.0, 0.0, 0.0, 0.0, 1.669771686941042E9, 0.0, 2022-11-29 19:28:06.941
38.0, 25.506117697805166, -231.52972645685077, 73.19732193276286, 190.08415514789522, 0.01600000075995922, 0.03200000151991844, 1.0240000486373901, 0.0, 0.0, 0.0, 0.0, 0.0, 1.669771686965034E9, 0.0, 2022-11-29 19:28:06.965
38.0, 16.16758750844747, -241.47786033898592, 74.2968525197357, 195.8735202793032, 0.01600000075995922, 0.03200000151991844, 1.0240000486373901, 0.0, 0.0, 0.0, 0.0, 0.0, 1.669771686965034E9, 0.0, 2022-11-29 19:28:06.965
39.0, 21.463285845704377, -241.1898880423978, 72.67373593896627, 196.45320477243513, 0.01600000075995922, 0.03200000151991844, 1.0240000486373901, 0.0, 0.0, 0.0, 0.0, 0.0, 1.669771686989042E9, 0.0, 2022-11-29 19:28:06.989
39.0, 35.226117682643235, -245.9694801857695, 76.87738348916173, 207.88233903702348, 0.01600000075995922, 0.03200000151991844, 1.0240000486373901, 0.0, 0.0, 0.0, 0.0, 0.0, 1.669771686989042E9, 0.0, 2022-11-29 19:28:06.989
40.0, 16.765971501357853, -238.594397473149, 72.15762974508107, 201.17669841647148, 0.01600000075995922, 0.03200000151991844, 1.0240000486373901, 0.0, 0.0, 0.0, 0.0, 0.0, 1.669771687013063E9, 0.0, 2022-11-29 19:28:07.013
40.0, 26.18303958978504, -238.10447057895362, 62.90137735474855, 197.1263867644593, 0.01600000075995922, 0.03200000151991844, 1.0240000486373901, 0.0, 0.0, 0.0, 0.0, 0.0, 1.669771687013063E9, 0.0, 2022-11-29 19:28:07.013
41.0, 31.123447431251407, -239.9706806568429, 70.28767976723611, 194.80390889197588, 0.01600000075995922, 0.03200000151991844, 1.0240000486373901, 0.0, 0.0, 0.0, 0.0, 0.0, 1.669771687044085E9, 0.0, 2022-11-29 19:28:07.044
41.0, 30.62230083718896, -249.06237744912505, 78.49302027001977, 205.97125015966594, 0.01600000075995922, 0.03200000151991844, 1.0240000486373901, 0.0, 0.0, 0.0, 0.0, 0.0, 1.669771687044085E9, 0.0, 2022-11-29 19:28:07.044
42.0, 26.074582491070032, -253.1239088010043, 71.64900335110724, 203.36827979050577, 0.01600000075995922, 0.03200000151991844, 1.0240000486373901, 0.0, 0.0, 0.0, 0.0, 0.0, 1.669771687068015E9, 0.0, 2022-11-29 19:28:07.068
42.0, 19.612035367637873, -233.818545229733, 63.13699105195701, 193.82031520362943, 0.01600000075995922, 0.03200000151991844, 1.0240000486373901, 0.0, 0.0, 0.0, 0.0, 0.0, 1.669771687068015E9, 0.0, 2022-11-29 19:28:07.068
43.0, 30.872874134220183, -229.60367797967046, 71.1441168570891, 195.76880308054388, 0.01600000075995922, 0.03200000151991844, 1.0240000486373901, 0.0, 0.0, 0.0, 0.0, 0.0, 1.669771687092044E9, 0.0, 2022-11-29 19:28:07.092
43.0, 21.28751054778695, -237.8164982823655, 67.28828000277281, 193.89511320274323, 0.01600000075995922, 0.03200000151991844, 1.0240000486373901, 0.0, 0.0, 0.0, 0.0, 0.0, 1.669771687092044E9, 0.0, 2022-11-29 19:28:07.092
44.0, 18.325509782880545, -239.47701386269182, 68.02878019399941, 194.91984579060227, 0.01600000075995922, 0.03200000151991844, 1.0240000486373901, 0.0, 0.0, 0.0, 0.0, 0.0, 1.669771687116026E9, 0.0, 2022-11-29 19:28:07.116
44.0, 25.850188493728638, -237.41632898710668, 68.2569140912965, 201.2851555151865, 0.01600000075995922, 0.03200000151991844, 1.0240000486373901, 0.0, 0.0, 0.0, 0.0, 0.0, 1.669771687116026E9, 0.0, 2022-11-29 19:28:07.116
45.0, 17.7121661901474, -232.68909544311464, 69.19562898017466, 203.65999198704958, 0.01600000075995922, 0.03200000151991844, 1.0240000486373901, 0.0, 0.0, 0.0, 0.0, 0.0, 1.669771687140041E9, 0.0, 2022-11-29 19:28:07.140
45.0, 18.688280078582466, -242.5998303256929, 64.958322330378, 195.63416668213904, 0.01600000075995922, 0.03200000151991844, 1.0240000486373901, 0.0, 0.0, 0.0, 0.0, 0.0, 1.669771687140041E9, 0.0, 2022-11-29 19:28:07.140
46.0, 22.753551330417395, -242.66340862493962, 70.39613686595112, 208.3199073318392, 0.01600000075995922, 0.03200000151991844, 1.0240000486373901, 0.0, 0.0, 0.0, 0.0, 0.0, 1.669771687164042E9, 0.0, 2022-11-29 19:28:07.164
46.0, 22.54037703294307, -246.57534397859126, 74.85409761313349, 193.71559800487012, 0.01600000075995922, 0.03200000151991844, 1.0240000486373901, 0.0, 0.0, 0.0, 0.0, 0.0, 1.669771687164042E9, 0.0, 2022-11-29 19:28:07.164
47.0, 26.57572908513248, -252.18519391212612, 76.41737579461187, 193.10599431209266, 0.01600000075995922, 0.03200000151991844, 1.0240000486373901, 0.0, 0.0, 0.0, 0.0, 0.0, 1.669771687188106E9, 0.0, 2022-11-29 19:28:07.188
47.0, 25.532296997494996, -251.36615582183003, 71.23387445602566, 193.04615591280162, 0.01600000075995922, 0.03200000151991844, 1.0240000486373901, 0.0, 0.0, 0.0, 0.0, 0.0, 1.669771687188106E9, 0.0, 2022-11-29 19:28:07.188
48.0, 21.590442444197834, -238.63927627261728, 69.81645237281919, 203.5777141880244, 0.01600000075995922, 0.03200000151991844, 1.0240000486373901, 0.0, 0.0, 0.0, 0.0, 0.0, 1.669771687212041E9, 0.0, 2022-11-29 19:28:07.212
48.0, 30.6073412373662, -249.002539049834, 71.28997295536101, 207.96087693609297, 0.01600000075995922, 0.03200000151991844, 1.0240000486373901, 0.0, 0.0, 0.0, 0.0, 0.0, 1.669771687212041E9, 0.0, 2022-11-29 19:28:07.212
49.0, 25.891327393241227, -241.4142820397392, 63.361385049298406, 196.8758134674281, 0.01600000075995922, 0.03200000151991844, 1.0240000486373901, 0.0, 0.0, 0.0, 0.0, 0.0, 1.669771687236044E9, 0.0, 2022-11-29 19:28:07.236
49.0, 11.586210062727332, -218.59341251011938, 77.31121188402176, 192.21215822268277, 0.01600000075995922, 0.03200000151991844, 1.0240000486373901, 0.0, 0.0, 0.0, 0.0, 0.0, 1.669771687236044E9, 0.0, 2022-11-29 19:28:07.236
50.0, 11.597429762594402, -232.6703959433362, 70.83744506072253, 184.0890955189243, 0.01600000075995922, 0.03200000151991844, 1.0240000486373901, 0.0, 0.0, 0.0, 0.0, 0.0, 1.669771687260044E9, 0.0, 2022-11-29 19:28:07.260
50.0, 16.190026908181608, -239.24140016548336, 75.22808760870248, 191.2360443342477, 0.01600000075995922, 0.03200000151991844, 1.0240000486373901, 0.0, 0.0, 0.0, 0.0, 0.0, 1.669771687260044E9, 0.0, 2022-11-29 19:28:07.260
51.0, 14.544470927678049, -238.9983066683635, 72.98788753524423, 185.17366650607437, 0.01600000075995922, 0.03200000151991844, 1.0240000486373901, 0.0, 0.0, 0.0, 0.0, 0.0, 1.669771687284049E9, 0.0, 2022-11-29 19:28:07.284
51.0, 21.889634440653026, -237.18071528989822, 91.77714491263032, 181.6432009479031, 0.01600000075995922, 0.03200000151991844, 1.0240000486373901, 0.0, 0.0, 0.0, 0.0, 0.0, 1.669771687284049E9, 0.0, 2022-11-29 19:28:07.284
52.0, 10.228626378811896, -217.37794502452016, 88.92734114639461, 173.80811054073274, 0.01600000075995922, 0.03200000151991844, 1.0240000486373901, 0.0, 0.0, 0.0, 0.0, 0.0, 1.669771687308044E9, 0.0, 2022-11-29 19:28:07.308
52.0, 17.973959187045693, -194.93480539042503, 90.2288263309747, 161.79181198310107, 0.01600000075995922, 0.03200000151991844, 1.0240000486373901, 0.0, 0.0, 0.0, 0.0, 0.0, 1.669771687308044E9, 0.0, 2022-11-29 19:28:07.308
53.0, 13.994705634191632, -208.55178112909198, 85.23231999017298, 162.34531717654318, 0.01600000075995922, 0.03200000151991844, 1.0240000486373901, 0.0, 0.0, 0.0, 0.0, 0.0, 1.669771687332057E9, 0.0, 2022-11-29 19:28:07.332
53.0, 10.995305869728327, -220.19408969115466, 90.95062702242285, 165.2250401424244, 0.01600000075995922, 0.03200000151991844, 1.0240000486373901, 0.0, 0.0, 0.0, 0.0, 0.0, 1.669771687332057E9, 0.0, 2022-11-29 19:28:07.332
54.0, -0.3777298955246806, -202.17899160459638, 82.82756431866437, 151.2527739079669, 0.01600000075995922, 0.03200000151991844, 1.0240000486373901, 0.0, 0.0, 0.0, 0.0, 0.0, 1.66977168735604E9, 0.0, 2022-11-29 19:28:07.356
54.0, 8.919661394320428, -192.21963802259415, 92.10625610873103, 149.45388202928007, 0.01600000075995922, 0.03200000151991844, 1.0240000486373901, 0.0, 0.0, 0.0, 0.0, 0.0, 1.66977168735604E9, 0.0, 2022-11-29 19:28:07.356
55.0, 1.2640861850231886, -190.10659454762936, 93.710673189722, 154.12875697389245, 0.01600000075995922, 0.03200000151991844, 1.0240000486373901, 0.0, 0.0, 0.0, 0.0, 0.0, 1.669771687380049E9, 0.0, 2022-11-29 19:28:07.380
55.0, -5.082524039782584, -188.18802587036043, 94.49231228046119, 141.2522814264521, 0.01600000075995922, 0.03200000151991844, 1.0240000486373901, 0.0, 0.0, 0.0, 0.0, 0.0, 1.669771687380049E9, 0.0, 2022-11-29 19:28:07.380
56.0, 7.3863024124875665, -190.7573371399194, 93.10854929685593, 144.04224679339677, 0.01600000075995922, 0.03200000151991844, 1.0240000486373901, 0.0, 0.0, 0.0, 0.0, 0.0, 1.669771687404036E9, 0.0, 2022-11-29 19:28:07.404
56.0, -0.7704193908721209, -186.87532098591328, 90.01191213354468, 134.692496904172, 0.01600000075995922, 0.03200000151991844, 1.0240000486373901, 0.0, 0.0, 0.0, 0.0, 0.0, 1.669771687404036E9, 0.0, 2022-11-29 19:28:07.404
57.0, 8.317537501454353, -207.52330864127725, 104.492804761976, 135.88552499003708, 0.01600000075995922, 0.03200000151991844, 1.0240000486373901, 0.0, 0.0, 0.0, 0.0, 0.0, 1.669771687428043E9, 0.0, 2022-11-29 19:28:07.428
57.0, -3.2761523611843586, -186.09742179512978, 96.40340115781873, 128.4730432778597, 0.01600000075995922, 0.03200000151991844, 1.0240000486373901, 0.0, 0.0, 0.0, 0.0, 0.0, 1.669771687428043E9, 0.0, 2022-11-29 19:28:07.428
58.0, -9.802277783863246, -172.31215055845678, 103.4568524742499, 122.59392054751515, 0.01600000075995922, 0.03200000151991844, 1.0240000486373901, 0.0, 0.0, 0.0, 0.0, 0.0, 1.66977168745207E9, 0.0, 2022-11-29 19:28:07.452
58.0, -6.1783147267997265, -162.40141567587852, 100.2330587124452, 109.07044230774045, 0.01600000075995922, 0.03200000151991844, 1.0240000486373901, 0.0, 0.0, 0.0, 0.0, 0.0, 1.66977168745207E9, 0.0, 2022-11-29 19:28:07.452
59.0, 2.1167833749204874, -165.80472463555634, 90.09792983252555, 115.92941882647574, 0.01600000075995922, 0.03200000151991844, 1.0240000486373901, 0.0, 0.0, 0.0, 0.0, 0.0, 1.669771687476043E9, 0.0, 2022-11-29 19:28:07.476
59.0, -3.9568141531199217, -172.71979965362698, 98.99889172706753, 114.81866853963584, 0.01600000075995922, 0.03200000151991844, 1.0240000486373901, 0.0, 0.0, 0.0, 0.0, 0.0, 1.669771687476043E9, 0.0, 2022-11-29 19:28:07.476
60.0, -8.84860329516232, -161.64969578478485, 106.0897420430556, 114.05946884863079, 0.01600000075995922, 0.03200000151991844, 1.0240000486373901, 0.0, 0.0, 0.0, 0.0, 0.0, 1.669771687500024E9, 0.0, 2022-11-29 19:28:07.500
60.0, -4.910488641820848, -164.01705245673656, 102.37228148709983, 102.26756428834051, 0.01600000075995922, 0.03200000151991844, 1.0240000486373901, 0.0, 0.0, 0.0, 0.0, 0.0, 1.669771687500024E9, 0.0, 2022-11-29 19:28:07.500
61.0, -7.678014609031379, -167.28946491796523, 98.13123493734747, 118.16213910002261, 0.01600000075995922, 0.03200000151991844, 1.0240000486373901, 0.0, 0.0, 0.0, 0.0, 0.0, 1.669771687524045E9, 0.0, 2022-11-29 19:28:07.524
61.0, 0.564724893309176, -170.13926868420094, 99.39532112237066, 120.60055387113243, 0.01600000075995922, 0.03200000151991844, 1.0240000486373901, 0.0, 0.0, 0.0, 0.0, 0.0, 1.669771687524045E9, 0.0, 2022-11-29 19:28:07.524
62.0, -4.663655244745314, -161.90774888172746, 95.62924186699092, 120.51827607210726, 0.01600000075995922, 0.03200000151991844, 1.0240000486373901, 0.0, 0.0, 0.0, 0.0, 0.0, 1.669771687548056E9, 0.0, 2022-11-29 19:28:07.548
62.0, -0.7031011916697025, -169.0060789976269, 98.378068334423, 110.68607908859849, 0.01600000075995922, 0.03200000151991844, 1.0240000486373901, 0.0, 0.0, 0.0, 0.0, 0.0, 1.669771687548056E9, 0.0, 2022-11-29 19:28:07.548
63.0, -0.4113889951258898, -163.20549416635185, 97.71610604226589, 119.23923028726131, 0.01600000075995922, 0.03200000151991844, 1.0240000486373901, 0.0, 0.0, 0.0, 0.0, 0.0, 1.669771687572047E9, 0.0, 2022-11-29 19:28:07.572
63.0, 6.918814918026328, -163.5196457626298, 99.77679091785103, 119.22053078748286, 0.01600000075995922, 0.03200000151991844, 1.0240000486373901, 0.0, 0.0, 0.0, 0.0, 0.0, 1.669771687572047E9, 0.0, 2022-11-29 19:28:07.572
64.0, 0.20195459760725498, -163.6355826612562, 89.74263933673501, 119.30654848646373, 0.01600000075995922, 0.03200000151991844, 1.0240000486373901, 0.0, 0.0, 0.0, 0.0, 0.0, 1.669771687596024E9, 0.0, 2022-11-29 19:28:07.596
64.0, -3.171435162425041, -160.38560959976166, 93.42270089313388, 122.35830685030669, 0.01600000075995922, 0.03200000151991844, 1.0240000486373901, 0.0, 0.0, 0.0, 0.0, 0.0, 1.669771687596024E9, 0.0, 2022-11-29 19:28:07.596
65.0, -1.9484878769144416, -161.02887239214033, 92.94399369880557, 122.37700635008514, 0.01600000075995922, 0.03200000151991844, 1.0240000486373901, 0.0, 0.0, 0.0, 0.0, 0.0, 1.669771687620045E9, 0.0, 2022-11-29 19:28:07.620
65.0, 19.929926863871515, -155.6321967560798, 95.6741206664592, 105.97006524447352, 0.01600000075995922, 0.03200000151991844, 1.0240000486373901, 0.0, 0.0, 0.0, 0.0, 0.0, 1.669771687620045E9, 0.0, 2022-11-29 19:28:07.620
66.0, 15.872135411947966, -165.38211594056338, 82.52837232220918, 112.67196596506983, 0.01600000075995922, 0.03200000151991844, 1.0240000486373901, 0.0, 0.0, 0.0, 0.0, 0.0, 1.669771687644033E9, 0.0, 2022-11-29 19:28:07.644
66.0, 12.816637148149312, -153.1489031855017, 82.92106181755662, 115.09542113635689, 0.01600000075995922, 0.03200000151991844, 1.0240000486373901, 0.0, 0.0, 0.0, 0.0, 0.0, 1.669771687644033E9, 0.0, 2022-11-29 19:28:07.644
67.0, 6.731819920241833, -148.01776044629514, 82.36007682420313, 110.60006138961762, 0.01600000075995922, 0.03200000151991844, 1.0240000486373901, 0.0, 0.0, 0.0, 0.0, 0.0, 1.66977168766803E9, 0.0, 2022-11-29 19:28:07.668
67.0, 7.034751816652715, -157.04961883928627, 79.34571745991707, 109.01060390844941, 0.01600000075995922, 0.03200000151991844, 1.0240000486373901, 0.0, 0.0, 0.0, 0.0, 0.0, 1.66977168766803E9, 0.0, 2022-11-29 19:28:07.668
68.0, 5.467733735218644, -151.71278160251677, 91.18624071963131, 115.9069794267416, 0.01600000075995922, 0.03200000151991844, 1.0240000486373901, 0.0, 0.0, 0.0, 0.0, 0.0, 1.669771687692064E9, 0.0, 2022-11-29 19:28:07.692
68.0, 9.951873782090843, -148.36931104213, 98.37058853451163, 112.65326646529138, 0.01600000075995922, 0.03200000151991844, 1.0240000486373901, 0.0, 0.0, 0.0, 0.0, 0.0, 1.669771687692064E9, 0.0, 2022-11-29 19:28:07.692
69.0, 0.06357829924672842, -152.2588069960475, 89.55190443899482, 105.83168894611299, 0.01600000075995922, 0.03200000151991844, 1.0240000486373901, 0.0, 0.0, 0.0, 0.0, 0.0, 1.669771687716053E9, 0.0, 2022-11-29 19:28:07.716
69.0, 2.5169526701793075, -161.01765269227326, 92.54382440354675, 111.49015757907182, 0.01600000075995922, 0.03200000151991844, 1.0240000486373901, 0.0, 0.0, 0.0, 0.0, 0.0, 1.669771687716053E9, 0.0, 2022-11-29 19:28:07.716
70.0, 2.5169526701793075, -143.3316658018157, 99.68703331891447, 104.82191595807672, 0.01600000075995922, 0.03200000151991844, 1.0240000486373901, 0.0, 0.0, 0.0, 0.0, 0.0, 1.669771687740048E9, 0.0, 2022-11-29 19:28:07.740
70.0, 1.451081182807684, -148.49646764062345, 88.79270474798977, 101.52332419715822, 0.01600000075995922, 0.03200000151991844, 1.0240000486373901, 0.0, 0.0, 0.0, 0.0, 0.0, 1.669771687740048E9, 0.0, 2022-11-29 19:28:07.740
71.0, 3.2462331615388393, -141.07650612853467, 99.63093481957912, 102.48073858581483, 0.01600000075995922, 0.03200000151991844, 1.0240000486373901, 0.0, 0.0, 0.0, 0.0, 0.0, 1.669771687764044E9, 0.0, 2022-11-29 19:28:07.764
71.0, -0.09723739884793758, -140.55666003469378, 101.59064239636064, 106.7891033347696, 0.01600000075995922, 0.03200000151991844, 1.0240000486373901, 0.0, 0.0, 0.0, 0.0, 0.0, 1.669771687764044E9, 0.0, 2022-11-29 19:28:07.764
72.0, 2.1055636750534177, -144.56957268714905, 101.08201600238681, 103.7897035703063, 0.01600000075995922, 0.03200000151991844, 1.0240000486373901, 0.0, 0.0, 0.0, 0.0, 0.0, 1.669771687788028E9, 0.0, 2022-11-29 19:28:07.788
72.0, 1.6754751801490784, -139.07191975228488, 87.47625996358693, 88.60944965016097, 0.01600000075995922, 0.03200000151991844, 1.0240000486373901, 0.0, 0.0, 0.0, 0.0, 0.0, 1.669771687788028E9, 0.0, 2022-11-29 19:28:07.788
73.0, 7.741592908278108, -138.27906096167862, 93.43392059300095, 102.67521338351071, 0.01600000075995922, 0.03200000151991844, 1.0240000486373901, 0.0, 0.0, 0.0, 0.0, 0.0, 1.669771687812047E9, 0.0, 2022-11-29 19:28:07.812
73.0, 7.565817610360682, -143.41768350079656, 81.93746812921017, 98.22473243623972, 0.01600000075995922, 0.03200000151991844, 1.0240000486373901, 0.0, 0.0, 0.0, 0.0, 0.0, 1.669771687812047E9, 0.0, 2022-11-29 19:28:07.812
74.0, 4.8506502425298095, -148.83679853659123, 75.7778529021889, 99.07742962613702, 0.01600000075995922, 0.03200000151991844, 1.0240000486373901, 0.0, 0.0, 0.0, 0.0, 0.0, 1.669771687836075E9, 0.0, 2022-11-29 19:28:07.836
74.0, -1.488480182364583, -141.71976892091334, 69.38262397795916, 107.46228532679379, 0.01600000075995922, 0.03200000151991844, 1.0240000486373901, 0.0, 0.0, 0.0, 0.0, 0.0, 1.669771687836075E9, 0.0, 2022-11-29 19:28:07.836
75.0, 3.661362056620419, -139.34867234900594, 69.8127124728635, 118.67824529390782, 0.01600000075995922, 0.03200000151991844, 1.0240000486373901, 0.0, 0.0, 0.0, 0.0, 0.0, 1.669771687860046E9, 0.0, 2022-11-29 19:28:07.860
75.0, -3.5229857582598925, -143.52614059951156, 53.53666786570102, 105.10614835470915, 0.01600000075995922, 0.03200000151991844, 1.0240000486373901, 0.0, 0.0, 0.0, 0.0, 0.0, 1.669771687860046E9, 0.0, 2022-11-29 19:28:07.860
76.0, -9.211373590864241, -154.73088086675853, 83.11927651520818, 113.00481706112623, 0.01600000075995922, 0.03200000151991844, 1.0240000486373901, 0.0, 0.0, 0.0, 0.0, 0.0, 1.669771687884039E9, 0.0, 2022-11-29 19:28:07.884
76.0, 2.980700264684856, -145.97577507048845, 82.3002384249121, 110.36444769240916, 0.01600000075995922, 0.03200000151991844, 1.0240000486373901, 0.0, 0.0, 0.0, 0.0, 0.0, 1.669771687884039E9, 0.0, 2022-11-29 19:28:07.884
77.0, 10.539038075134158, -146.3983837654814, 72.46804144140333, 115.44697173219174, 0.01600000075995922, 0.03200000151991844, 1.0240000486373901, 0.0, 0.0, 0.0, 0.0, 0.0, 1.669771687908038E9, 0.0, 2022-11-29 19:28:07.908
77.0, 1.772712578997016, -149.1808693325147, 66.60013841092587, 118.38279319740832, 0.01600000075995922, 0.03200000151991844, 1.0240000486373901, 0.0, 0.0, 0.0, 0.0, 0.0, 1.669771687908038E9, 0.0, 2022-11-29 19:28:07.908
78.0, 12.49874565191567, -141.98156191781163, 62.187056463211775, 127.66896478738636, 0.01600000075995922, 0.03200000151991844, 1.0240000486373901, 0.0, 0.0, 0.0, 0.0, 0.0, 1.669771687932055E9, 0.0, 2022-11-29 19:28:07.932
78.0, 25.74921119492501, -131.49488244205713, 47.7622623341158, 135.27966119721532, 0.01600000075995922, 0.03200000151991844, 1.0240000486373901, 0.0, 0.0, 0.0, 0.0, 0.0, 1.669771687932055E9, 0.0, 2022-11-29 19:28:07.932
79.0, 10.011712181381881, -147.23986125551164, 45.60060015972704, 117.00277011375874, 0.01600000075995922, 0.03200000151991844, 1.0240000486373901, 0.0, 0.0, 0.0, 0.0, 0.0, 1.66977168795604E9, 0.0, 2022-11-29 19:28:07.956
79.0, 15.490665616467595, -149.98494782298803, 58.85106570273638, 115.27493633423, 0.01600000075995922, 0.03200000151991844, 1.0240000486373901, 0.0, 0.0, 0.0, 0.0, 0.0, 1.66977168795604E9, 0.0, 2022-11-29 19:28:07.956
80.0, 15.367248917929828, -149.0350132342428, 64.83490563184023, 116.45674472022802, 0.01600000075995922, 0.03200000151991844, 1.0240000486373901, 0.0, 0.0, 0.0, 0.0, 0.0, 1.669771687980027E9, 0.0, 2022-11-29 19:28:07.980
80.0, 14.559430527500808, -143.2119890032336, 52.482016078196466, 118.40523259714246, 0.01600000075995922, 0.03200000151991844, 1.0240000486373901, 0.0, 0.0, 0.0, 0.0, 0.0, 1.669771687980027E9, 0.0, 2022-11-29 19:28:07.980
81.0, 17.917860687710345, -158.6652556201443, 53.22251626942307, 135.31332029681653, 0.01600000075995922, 0.03200000151991844, 1.0240000486373901, 0.0, 0.0, 0.0, 0.0, 0.0, 1.669771688004018E9, 0.0, 2022-11-29 19:28:08.004
