Sample Index, EXG Channel 0, EXG Channel 1, EXG Channel 2, EXG Channel 3, Accel Channel 0, Accel Channel 1, Accel Channel 2, Other, Other, Other, Other, Other, Timestamp, Other, Timestamp (Formatted)
5.0, 11.27953826636076, -5.579930733889341, 10.763432072475553, 7.573297410272062, 0.0, 0.0, 0.0, 0.0, 0.0, 0.0, 0.0, 0.0, 1.669771596909989E9, 0.0, 2022-11-29 19:26:36.909
5.0, 5.071304339915514, -10.43058097641915, -1.6792150801047683, 0.3590303957462311, 0.0, 0.0, 0.0, 0.0, 0.0, 0.0, 0.0, 0.0, 1.669771596909989E9, 0.0, 2022-11-29 19:26:36.909
6.0, -7.289065013639629, -8.265178902074695, -3.6090034572407603, -5.811804531142116, 0.0, 0.0, 0.0, 0.0, 0.0, 0.0, 0.0, 0.0, 1.66977159693397E9, 0.0, 2022-11-29 19:26:36.933
6.0, -0.4300884949043393, -14.297637530602515, -11.481492863968015, 9.940654082223773, 0.0, 0.0, 0.0, 0.0, 0.0, 0.0, 0.0, 0.0, 1.66977159693397E9, 0.0, 2022-11-29 19:26:36.933
7.0, -8.42973450012505, -20.677906855009496, 0.3029318964108825, 0.4263485949486494, 0.0, 0.0, 0.0, 0.0, 0.0, 0.0, 0.0, 0.0, 1.669771596957941E9, 0.0, 2022-11-29 19:26:36.957
7.0, -8.362416300922632, -29.02536355610937, -6.978653317317367, -6.481246623210609, 0.0, 0.0, 0.0, 0.0, 0.0, 0.0, 0.0, 0.0, 1.669771596957941E9, 0.0, 2022-11-29 19:26:36.957
8.0, -16.320923406630754, -21.657760643400252, -8.728926496580243, -16.754751801490784, 0.0, 0.0, 0.0, 0.0, 0.0, 0.0, 0.0, 0.0, 1.66977159698194E9, 0.0, 2022-11-29 19:26:36.981
8.0, -11.990119257941842, -25.506117697805166, -8.0781839042902, -9.106656392104924, 0.0, 0.0, 0.0, 0.0, 0.0, 0.0, 0.0, 0.0, 1.66977159698194E9, 0.0, 2022-11-29 19:26:36.981
9.0, -11.589949962683022, -38.10958054848015, -22.10654863808304, -12.816637148149312, 0.0, 0.0, 0.0, 0.0, 0.0, 0.0, 0.0, 0.0, 1.669771597005953E9, 0.0, 2022-11-29 19:26:37.005
9.0, -15.999292010441422, -30.038876444101334, -34.848387787118554, -22.697452831082046, 0.0, 0.0, 0.0, 0.0, 0.0, 0.0, 0.0, 0.0, 1.669771597005953E9, 0.0, 2022-11-29 19:26:37.005
10.0, -18.703239678405225, -34.28740279376507, -43.38283948600292, -22.716152330860496, 0.0, 0.0, 1.0240000486373901, 0.0, 0.0, 0.0, 0.0, 0.0, 1.669771597029976E9, 0.0, 2022-11-29 19:26:37.029
10.0, -34.54545589070767, -35.83946127537638, -32.13696031924337, -38.7229241412133, 0.0, 0.0, 1.0240000486373901, 0.0, 0.0, 0.0, 0.0, 0.0, 1.669771597029976E9, 0.0, 2022-11-29 19:26:37.029
11.0, -39.9458714267239, -33.251450506038964, -35.188718683086336, -48.29332812782377, 0.0, 0.01600000075995922, 1.0240000486373901, 0.0, 0.0, 0.0, 0.0, 0.0, 1.669771597053946E9, 0.0, 2022-11-29 19:26:37.053
11.0, -45.15929196495563, -52.081846782937646, -51.09451319463551, -47.343393539078534, 0.0, 0.01600000075995922, 1.0240000486373901, 0.0, 0.0, 0.0, 0.0, 0.0, 1.669771597053946E9, 0.0, 2022-11-29 19:26:37.053
12.0, -55.11116574704647, -56.154597834683955, -40.61531351879239, -39.11187373660505, 0.01600000075995922, 0.01600000075995922, 1.0240000486373901, 0.0, 0.0, 0.0, 0.0, 0.0, 1.669771597077965E9, 0.0, 2022-11-29 19:26:37.077
12.0, -57.50470171868801, -48.65609842352569, -40.33856092207134, -58.27886100951582, 0.01600000075995922, 0.01600000075995922, 1.0240000486373901, 0.0, 0.0, 0.0, 0.0, 0.0, 1.669771597077965E9, 0.0, 2022-11-29 19:26:37.077
13.0, -54.64367825258523, -51.90233158506453, -41.44183140899986, -61.382977972738445, 0.01600000075995922, 0.01600000075995922, 1.0240000486373901, 0.0, 0.0, 0.0, 0.0, 0.0, 1.669771597101952E9, 0.0, 2022-11-29 19:26:37.101
13.0, -46.483216549269855, -47.47055013757199, -59.337252696976066, -42.848033792339265, 0.01600000075995922, 0.01600000075995922, 1.0240000486373901, 0.0, 0.0, 0.0, 0.0, 0.0, 1.669771597101952E9, 0.0, 2022-11-29 19:26:37.101
14.0, -50.22685640491545, -51.659238087944686, -49.00390911940485, -48.75707572232932, 0.01600000075995922, 0.01600000075995922, 1.0240000486373901, 0.0, 0.0, 0.0, 0.0, 0.0, 1.669771597125951E9, 0.0, 2022-11-29 19:26:37.125
14.0, -43.82040778081864, -59.93937658984214, -48.169911429286, -52.7662484748289, 0.01600000075995922, 0.01600000075995922, 1.0240000486373901, 0.0, 0.0, 0.0, 0.0, 0.0, 1.669771597125951E9, 0.0, 2022-11-29 19:26:37.125
15.0, -39.81497492827475, -62.28055396210402, -46.3560599507764, -56.551027229987085, 0.01600000075995922, 0.01600000075995922, 1.0240000486373901, 0.0, 0.0, 0.0, 0.0, 0.0, 1.669771597149927E9, 0.0, 2022-11-29 19:26:37.149
15.0, -52.904624773189425, -43.9475643793121, -45.76515575777739, -50.941177296452224, 0.01600000075995922, 0.01600000075995922, 1.0240000486373901, 0.0, 0.0, 0.0, 0.0, 0.0, 1.669771597149927E9, 0.0, 2022-11-29 19:26:37.149
16.0, -51.55452088918537, -38.042262349277735, -50.78036159835756, -51.93599068466574, 0.01600000075995922, 0.01600000075995922, 1.0240000486373901, 0.0, 0.0, 0.0, 0.0, 0.0, 1.669771597173983E9, 0.0, 2022-11-29 19:26:37.173
16.0, -59.797260391525924, -30.884093834087253, -45.46970366127789, -39.227810635231435, 0.01600000075995922, 0.01600000075995922, 1.0240000486373901, 0.0, 0.0, 0.0, 0.0, 0.0, 1.669771597173983E9, 0.0, 2022-11-29 19:26:37.173
17.0, -46.77866864576936, -35.45051167998463, -43.07616768963635, -36.766956464387476, 0.01600000075995922, 0.01600000075995922, 1.0240000486373901, 0.0, 0.0, 0.0, 0.0, 0.0, 1.66977159719796E9, 0.0, 2022-11-29 19:26:37.197
17.0, -41.640046106651425, -31.03368983231485, -31.35906112845987, -40.20018462371081, 0.01600000075995922, 0.01600000075995922, 1.0240000486373901, 0.0, 0.0, 0.0, 0.0, 0.0, 1.66977159719796E9, 0.0, 2022-11-29 19:26:37.197
18.0, -44.40009227395058, -43.77552898135036, -22.99290492758155, -30.405386639758945, 0.01600000075995922, 0.01600000075995922, 1.0240000486373901, 0.0, 0.0, 0.0, 0.0, 0.0, 1.669771597221966E9, 0.0, 2022-11-29 19:26:37.221
18.0, -37.589734454639256, -32.17061941884458, -35.05782218463719, -33.33372830506414, 0.01600000075995922, 0.01600000075995922, 1.0240000486373901, 0.0, 0.0, 0.0, 0.0, 0.0, 1.669771597221966E9, 0.0, 2022-11-29 19:26:37.221
19.0, -48.095113430172205, -34.96058478578925, -40.028149225749075, -41.73354360554367, 0.01600000075995922, 0.01600000075995922, 1.0240000486373901, 0.0, 0.0, 0.0, 0.0, 0.0, 1.669771597245954E9, 0.0, 2022-11-29 19:26:37.245
19.0, -51.345086491666734, -46.73752974625677, -29.41057325154543, -47.743562834337354, 0.01600000075995922, 0.01600000075995922, 1.0240000486373901, 0.0, 0.0, 0.0, 0.0, 0.0, 1.669771597245954E9, 0.0, 2022-11-29 19:26:37.245
20.0, -57.336406220681965, -49.86034620925784, -30.58864173758775, -52.02948818355799, 0.01600000075995922, 0.01600000075995922, 1.0240000486373901, 0.0, 0.0, 0.0, 0.0, 0.0, 1.66977159726997E9, 0.0, 2022-11-29 19:26:37.269
20.0, -58.361138808541, -59.08667939994484, -41.77094260510057, -66.96664860658348, 0.01600000075995922, 0.01600000075995922, 1.0240000486373901, 0.0, 0.0, 0.0, 0.0, 0.0, 1.66977159726997E9, 0.0, 2022-11-29 19:26:37.269
21.0, -53.690003763884306, -49.84164670947939, -54.79701415076852, -66.53282021172345, 0.01600000075995922, 0.01600000075995922, 1.0240000486373901, 0.0, 0.0, 0.0, 0.0, 0.0, 1.669771597293968E9, 0.0, 2022-11-29 19:26:37.293
21.0, -60.590119182132185, -62.37031156104058, -51.277768292464316, -65.68012302182615, 0.01600000075995922, 0.01600000075995922, 1.0240000486373901, 0.0, 0.0, 0.0, 0.0, 0.0, 1.669771597293968E9, 0.0, 2022-11-29 19:26:37.293
22.0, -70.78508646134287, -61.13240467570722, -52.968203072436154, -74.21083482075483, 0.01600000075995922, 0.01600000075995922, 1.0240000486373901, 0.0, 0.0, 0.0, 0.0, 0.0, 1.669771597317932E9, 0.0, 2022-11-29 19:26:37.317
22.0, -63.2529279505834, -65.36971132550389, -63.024794053286314, -72.05665244627744, 0.01600000075995922, 0.01600000075995922, 1.0240000486373901, 0.0, 0.0, 0.0, 0.0, 0.0, 1.669771597317932E9, 0.0, 2022-11-29 19:26:37.317
23.0, -76.3350979955867, -70.0707655698061, -63.780253844335675, -58.45089640747756, 0.01600000075995922, 0.01600000075995922, 1.0240000486373901, 0.0, 0.0, 0.0, 0.0, 0.0, 1.669771597341939E9, 0.0, 2022-11-29 19:26:37.341
23.0, -81.18200833816081, -72.77845313772559, -51.16557129379362, -72.60641773976386, 0.01600000075995922, 0.01600000075995922, 1.0240000486373901, 0.0, 0.0, 0.0, 0.0, 0.0, 1.669771597341939E9, 0.0, 2022-11-29 19:26:37.341
24.0, -76.30517879594117, -57.302747121080756, -62.216975662857294, -68.91887638345361, 0.01600000075995922, 0.01600000075995922, 1.0240000486373901, 0.0, 0.0, 0.0, 0.0, 0.0, 1.66977159736592E9, 0.0, 2022-11-29 19:26:37.365
24.0, -66.5851788111031, -66.7721738088876, -64.7713273325935, -64.90222383104265, 0.01600000075995922, 0.01600000075995922, 1.0240000486373901, 0.0, 0.0, 0.0, 0.0, 0.0, 1.66977159736592E9, 0.0, 2022-11-29 19:26:37.365
25.0, -50.522308501414955, -69.59205837547779, -58.64911110512912, -67.59121189918369, 0.01600000075995922, 0.01600000075995922, 1.0240000486373901, 0.0, 0.0, 0.0, 0.0, 0.0, 1.669771597389984E9, 0.0, 2022-11-29 19:26:37.389
25.0, -49.755629010498524, -66.40566361322999, -65.13409762829542, -60.64995758142322, 0.01600000075995922, 0.01600000075995922, 1.0240000486373901, 0.0, 0.0, 0.0, 0.0, 0.0, 1.669771597389984E9, 0.0, 2022-11-29 19:26:37.389
26.0, -66.27102721482515, -58.551873706281185, -65.8072796203196, -57.28030772134662, 0.01600000075995922, 0.01600000075995922, 1.0240000486373901, 0.0, 0.0, 0.0, 0.0, 0.0, 1.669771597413948E9, 0.0, 2022-11-29 19:26:37.413
26.0, -51.04963439516723, -51.53956128936261, -69.20310878008604, -57.08583292365074, 0.01600000075995922, 0.01600000075995922, 1.0240000486373901, 0.0, 0.0, 0.0, 0.0, 0.0, 1.669771597413948E9, 0.0, 2022-11-29 19:26:37.413
27.0, -56.05362053588033, -53.16267787013203, -54.28838775679469, -61.341839073225856, 0.01600000075995922, 0.01600000075995922, 1.0240000486373901, 0.0, 0.0, 0.0, 0.0, 0.0, 1.669771597437953E9, 0.0, 2022-11-29 19:26:37.437
27.0, -67.86422459594905, -64.51701413560659, -42.99388989061117, -58.03202761244029, 0.01600000075995922, 0.01600000075995922, 1.0240000486373901, 0.0, 0.0, 0.0, 0.0, 0.0, 1.669771597437953E9, 0.0, 2022-11-29 19:26:37.437
28.0, -50.73548279888928, -73.0701653342694, -57.63185831718147, -58.75756820384413, 0.01600000075995922, 0.01600000075995922, 1.0240000486373901, 0.0, 0.0, 0.0, 0.0, 0.0, 1.669771597461956E9, 0.0, 2022-11-29 19:26:37.461
28.0, -61.92152356635779, -58.08812611177564, -63.49976134765893, -64.2140822391957, 0.01600000075995922, 0.01600000075995922, 1.0240000486373901, 0.0, 0.0, 0.0, 0.0, 0.0, 1.669771597461956E9, 0.0, 2022-11-29 19:26:37.461
29.0, -65.14531732816249, -64.4010772369802, -51.22540969308466, -68.48504798859358, 0.01600000075995922, 0.01600000075995922, 1.0240000486373901, 0.0, 0.0, 0.0, 0.0, 0.0, 1.669771597485978E9, 0.0, 2022-11-29 19:26:37.485
29.0, -64.56563283503056, -56.588426229543984, -53.02056167181581, -68.552366187796, 0.01600000075995922, 0.01600000075995922, 1.0240000486373901, 0.0, 0.0, 0.0, 0.0, 0.0, 1.669771597485978E9, 0.0, 2022-11-29 19:26:37.485
30.0, -57.13071172311902, -62.994874853640795, -53.85081946197897, -71.4395689535886, 0.01600000075995922, 0.01600000075995922, 1.0240000486373901, 0.0, 0.0, 0.0, 0.0, 0.0, 1.669771597509968E9, 0.0, 2022-11-29 19:26:37.509
30.0, -55.27946124505252, -59.808480091392994, -52.870965673588216, -51.17679099366069, 0.01600000075995922, 0.01600000075995922, 1.0240000486373901, 0.0, 0.0, 0.0, 0.0, 0.0, 1.669771597509968E9, 0.0, 2022-11-29 19:26:37.509
31.0, -57.19429002236575, -65.18645622767508, -55.8778452379629, -68.94131578318775, 0.01600000075995922, 0.01600000075995922, 1.0240000486373901, 0.0, 0.0, 0.0, 0.0, 0.0, 1.669771597533933E9, 0.0, 2022-11-29 19:26:37.533
31.0, -59.70002299267799, -67.72584829758853, -65.80353972036391, -76.41737579461187, 0.01600000075995922, 0.01600000075995922, 1.0240000486373901, 0.0, 0.0, 0.0, 0.0, 0.0, 1.669771597533933E9, 0.0, 2022-11-29 19:26:37.533
32.0, -48.910411620512605, -63.825132643803954, -71.45452855341136, -86.54502487462014, 0.01600000075995922, 0.01600000075995922, 1.0240000486373901, 0.0, 0.0, 0.0, 0.0, 0.0, 1.669771597557951E9, 0.0, 2022-11-29 19:26:37.557
32.0, -55.00644854828715, -65.70630232151598, -53.51796836592257, -75.64695640373975, 0.01600000075995922, 0.01600000075995922, 1.0240000486373901, 0.0, 0.0, 0.0, 0.0, 0.0, 1.669771597557951E9, 0.0, 2022-11-29 19:26:37.557
33.0, -73.61619072780013, -58.34243930876255, -63.88871094305068, -66.77591370884329, 0.01600000075995922, 0.01600000075995922, 1.0240000486373901, 0.0, 0.0, 0.0, 0.0, 0.0, 1.669771597581951E9, 0.0, 2022-11-29 19:26:37.581
33.0, -63.97846854198724, -57.88617151416838, -61.61859166994691, -82.93976131733507, 0.01600000075995922, 0.01600000075995922, 1.0240000486373901, 0.0, 0.0, 0.0, 0.0, 0.0, 1.669771597581951E9, 0.0, 2022-11-29 19:26:37.581
34.0, -72.40820304211229, -60.44426308386028, -68.52992678806186, -84.31604450102895, 0.01600000075995922, 0.01600000075995922, 1.0240000486373901, 0.0, 0.0, 0.0, 0.0, 0.0, 1.669771597605964E9, 0.0, 2022-11-29 19:26:37.605
34.0, -70.2203615680337, -66.06159281730652, -64.1804231395945, -100.56216990854591, 0.01600000075995922, 0.01600000075995922, 1.0240000486373901, 0.0, 0.0, 0.0, 0.0, 0.0, 1.669771597605964E9, 0.0, 2022-11-29 19:26:37.605
35.0, -68.23447469156235, -64.22904183901846, -54.31456705648452, -76.73526729084551, 0.01600000075995922, 0.01600000075995922, 1.0240000486373901, 0.0, 0.0, 0.0, 0.0, 0.0, 1.669771597629959E9, 0.0, 2022-11-29 19:26:37.629
35.0, -75.9237090004608, -83.15667551476508, -69.64067707490176, -76.04712569899857, 0.01600000075995922, 0.01600000075995922, 1.0240000486373901, 0.0, 0.0, 0.0, 0.0, 0.0, 1.669771597629959E9, 0.0, 2022-11-29 19:26:37.629
36.0, -71.45452855341136, -81.33908413629979, -81.93746812921017, -88.28407835401595, 0.01600000075995922, 0.01600000075995922, 1.0240000486373901, 0.0, 0.0, 0.0, 0.0, 0.0, 1.669771597653939E9, 0.0, 2022-11-29 19:26:37.653
36.0, -73.97896102350205, -76.11818379815668, -77.1840552855283, -88.29155815392733, 0.01600000075995922, 0.01600000075995922, 1.0240000486373901, 0.0, 0.0, 0.0, 0.0, 0.0, 1.669771597653939E9, 0.0, 2022-11-29 19:26:37.653
37.0, -81.95616762898862, -87.41642156429589, -71.20021535642445, -98.31822993513197, 0.01600000075995922, 0.01600000075995922, 1.0240000486373901, 0.0, 0.0, 0.0, 0.0, 0.0, 1.66977159767799E9, 0.0, 2022-11-29 19:26:37.677
37.0, -67.43413610104471, -82.54333192203194, -74.80921881366521, -98.00033843889832, 0.01600000075995922, 0.01600000075995922, 1.0240000486373901, 0.0, 0.0, 0.0, 0.0, 0.0, 1.66977159767799E9, 0.0, 2022-11-29 19:26:37.677
38.0, -76.70908799115568, -78.09659087471664, -73.96774132363498, -104.71345885936171, 0.01600000075995922, 0.01600000075995922, 1.0240000486373901, 0.0, 0.0, 0.0, 0.0, 0.0, 1.669771597701954E9, 0.0, 2022-11-29 19:26:37.701
38.0, -100.34899561107159, -92.77569820079952, -72.57649854011834, -112.89635996241122, 0.01600000075995922, 0.01600000075995922, 1.0240000486373901, 0.0, 0.0, 0.0, 0.0, 0.0, 1.669771597701954E9, 0.0, 2022-11-29 19:26:37.701
39.0, -90.18020763155073, -91.60884941462427, -76.61933039221913, -110.87681398633868, 0.01600000075995922, 0.01600000075995922, 1.0240000486373901, 0.0, 0.0, 0.0, 0.0, 0.0, 1.66977159772595E9, 0.0, 2022-11-29 19:26:37.725
39.0, -94.0472641857341, -104.47036536224186, -100.51355120912194, -110.25599059369415, 0.01600000075995922, 0.01600000075995922, 1.0240000486373901, 0.0, 0.0, 0.0, 0.0, 0.0, 1.66977159772595E9, 0.0, 2022-11-29 19:26:37.725
40.0, -92.08755660895258, -93.228226095438, -117.70961120538414, -121.03438226599246, 0.01600000075995922, 0.01600000075995922, 1.0240000486373901, 0.0, 0.0, 0.0, 0.0, 0.0, 1.669771597749939E9, 0.0, 2022-11-29 19:26:37.749
40.0, -110.38314719218761, -110.85437458660454, -114.84858773928136, -130.97503634821624, 0.01600000075995922, 0.01600000075995922, 1.0240000486373901, 0.0, 0.0, 0.0, 0.0, 0.0, 1.669771597749939E9, 0.0, 2022-11-29 19:26:37.749
41.0, -122.68367814645171, -142.4752287119627, -115.09916103631258, -135.44795669522136, 0.01600000075995922, 0.01600000075995922, 1.0240000486373901, 0.0, 0.0, 0.0, 0.0, 0.0, 1.669771597773974E9, 0.0, 2022-11-29 19:26:37.773
41.0, -123.25962273962796, -117.89286630321294, -113.58076165430248, -126.10568660590798, 0.01600000075995922, 0.01600000075995922, 1.0240000486373901, 0.0, 0.0, 0.0, 0.0, 0.0, 1.669771597773974E9, 0.0, 2022-11-29 19:26:37.773
42.0, -129.55761426500976, -127.41091169044375, -107.72407832369208, -138.45483625959605, 0.01600000075995922, 0.01600000075995922, 1.0240000486373901, 0.0, 0.0, 0.0, 0.0, 0.0, 1.669771597797962E9, 0.0, 2022-11-29 19:26:37.797
42.0, -131.27422834467143, -133.02076162397861, -128.97044997196645, -139.11679855175316, 0.01600000075995922, 0.01600000075995922, 1.0240000486373901, 0.0, 0.0, 0.0, 0.0, 0.0, 1.669771597797962E9, 0.0, 2022-11-29 19:26:37.797
43.0, -120.86234686803073, -119.75159658119082, -112.75424376409501, -124.40777202602476, 0.01600000075995922, 0.01600000075995922, 1.0240000486373901, 0.0, 0.0, 0.0, 0.0, 0.0, 1.669771597821967E9, 0.0, 2022-11-29 19:26:37.821
43.0, -125.71299711056054, -130.14851845800877, -111.93520567379892, -127.41465159039944, 0.01600000075995922, 0.01600000075995922, 1.0240000486373901, 0.0, 0.0, 0.0, 0.0, 0.0, 1.669771597821967E9, 0.0, 2022-11-29 19:26:37.821
44.0, -129.09012677054852, -123.98890323098749, -88.72164664883167, -137.77791436761618, 0.01600000075995922, 0.01600000075995922, 1.0240000486373901, 0.0, 0.0, 0.0, 0.0, 0.0, 1.669771597849975E9, 0.0, 2022-11-29 19:26:37.849
44.0, -123.77572893351316, -113.20677165873349, -100.32655621133745, -125.94487090781331, 0.01600000075995922, 0.01600000075995922, 1.0240000486373901, 0.0, 0.0, 0.0, 0.0, 0.0, 1.669771597849975E9, 0.0, 2022-11-29 19:26:37.849
45.0, -119.69923798181117, -111.86040767468512, -110.82071548700333, -112.43261236790568, 0.01600000075995922, 0.01600000075995922, 1.0240000486373901, 0.0, 0.0, 0.0, 0.0, 0.0, 1.669771597873916E9, 0.0, 2022-11-29 19:26:37.873
45.0, -108.67401291243732, -97.68992674257606, -83.6316428091377, -108.47205831483006, 0.01600000075995922, 0.01600000075995922, 1.0240000486373901, 0.0, 0.0, 0.0, 0.0, 0.0, 1.669771597873916E9, 0.0, 2022-11-29 19:26:37.873
46.0, -105.56241614930332, -100.43127341009676, -74.28937271982431, -110.04655619617552, 0.01600000075995922, 0.01600000075995922, 1.0240000486373901, 0.0, 0.0, 0.0, 0.0, 0.0, 1.669771597897968E9, 0.0, 2022-11-29 19:26:37.897
46.0, -96.23884555976838, -77.75999987870455, -63.2903269501403, -100.65940730739385, 0.01600000075995922, 0.01600000075995922, 1.0240000486373901, 0.0, 0.0, 0.0, 0.0, 0.0, 1.669771597897968E9, 0.0, 2022-11-29 19:26:37.897
47.0, -84.64141579717398, -68.1821160921827, -50.73548279888928, -82.64056932087988, 0.01600000075995922, 0.01600000075995922, 1.0240000486373901, 0.0, 0.0, 0.0, 0.0, 0.0, 1.669771597921996E9, 0.0, 2022-11-29 19:26:37.921
47.0, -67.4752750005573, -61.020207677036524, -48.18113112915307, -70.699068762362, 0.01600000075995922, 0.01600000075995922, 1.0240000486373901, 0.0, 0.0, 0.0, 0.0, 0.0, 1.669771597921996E9, 0.0, 2022-11-29 19:26:37.921
48.0, -59.714982592500746, -59.14277789928019, -37.05118886101991, -58.08438621181995, 0.01600000075995922, 0.01600000075995922, 1.0240000486373901, 0.0, 0.0, 0.0, 0.0, 0.0, 1.669771597945949E9, 0.0, 2022-11-29 19:26:37.945
48.0, -42.18981140013784, -67.89414379559457, -31.77419002354145, -58.989442001096904, 0.01600000075995922, 0.01600000075995922, 1.0240000486373901, 0.0, 0.0, 0.0, 0.0, 0.0, 1.669771597945949E9, 0.0, 2022-11-29 19:26:37.945
49.0, -56.29297413304448, -58.03576751239598, -23.909180416725576, -63.63065784610808, 0.01600000075995922, 0.01600000075995922, 1.0240000486373901, 0.0, 0.0, 0.0, 0.0, 0.0, 1.669771597969928E9, 0.0, 2022-11-29 19:26:37.969
49.0, -44.71798377018422, -23.445432822220027, -15.112935720942914, -61.97014226578176, 0.01600000075995922, 0.01600000075995922, 1.0240000486373901, 0.0, 0.0, 0.0, 0.0, 0.0, 1.669771597969928E9, 0.0, 2022-11-29 19:26:37.969
50.0, -46.25882255192846, -13.69925353769213, -14.278938030824065, -56.954936425201595, 0.01600000075995922, 0.01600000075995922, 1.0240000486373901, 0.0, 0.0, 0.0, 0.0, 0.0, 1.669771597993947E9, 0.0, 2022-11-29 19:26:37.993
50.0, -45.79133505746722, -11.26083876658231, 2.9133820654824376, -52.25388218089938, 0.01600000075995922, 0.01600000075995922, 1.0240000486373901, 0.0, 0.0, 0.0, 0.0, 0.0, 1.669771597993947E9, 0.0, 2022-11-29 19:26:37.993
51.0, -39.17919193580747, 2.124263174831867, 1.0621315874159336, -54.520261554047465, 0.01600000075995922, 0.03200000151991844, 1.0240000486373901, 0.0, 0.0, 0.0, 0.0, 0.0, 1.669771598017951E9, 0.0, 2022-11-29 19:26:38.017
51.0, -36.98761056177318, -0.17203539796173573, -1.3463639840483665, -46.64403224736452, 0.01600000075995922, 0.03200000151991844, 1.0240000486373901, 0.0, 0.0, 0.0, 0.0, 0.0, 1.669771598017951E9, 0.0, 2022-11-29 19:26:38.017
52.0, -27.996891068294644, -13.444940340705216, 8.530711798928678, -19.66065406706184, 0.01600000075995922, 0.03200000151991844, 1.0240000486373901, 0.0, 0.0, 0.0, 0.0, 0.0, 1.66977159804196E9, 0.0, 2022-11-29 19:26:38.041
52.0, -29.500330850481987, -9.458206987939775, -9.993012681603432, -10.86440937127918, 0.01600000075995922, 0.03200000151991844, 1.0240000486373901, 0.0, 0.0, 0.0, 0.0, 0.0, 1.66977159804196E9, 0.0, 2022-11-29 19:26:38.041
53.0, -28.404540163464844, 3.1938745621591806, -1.9073489774018526, -28.666333160363138, 0.01600000075995922, 0.03200000151991844, 1.0240000486373901, 0.0, 0.0, 0.0, 0.0, 0.0, 1.669771598065962E9, 0.0, 2022-11-29 19:26:38.065
53.0, -33.573081902228296, 1.7353135794401169, 14.140561732463539, -9.121615991927683, 0.01600000075995922, 0.03200000151991844, 1.0240000486373901, 0.0, 0.0, 0.0, 0.0, 0.0, 1.669771598065962E9, 0.0, 2022-11-29 19:26:38.065
54.0, -25.644493996165693, 7.131989215500653, 7.2628857139497995, -19.922447063960135, 0.01600000075995922, 0.03200000151991844, 1.0240000486373901, 0.0, 0.0, 0.0, 0.0, 0.0, 1.669771598089941E9, 0.0, 2022-11-29 19:26:38.089
54.0, -16.02921121008694, 10.995305869728327, 22.14020773768425, -25.154567101970315, 0.01600000075995922, 0.03200000151991844, 1.0240000486373901, 0.0, 0.0, 0.0, 0.0, 0.0, 1.669771598089941E9, 0.0, 2022-11-29 19:26:38.089
55.0, -16.190026908181608, 11.459053464233875, 27.43216617498547, -23.931619816459715, 0.01600000075995922, 0.03200000151991844, 1.0240000486373901, 0.0, 0.0, 0.0, 0.0, 0.0, 1.669771598113958E9, 0.0, 2022-11-29 19:26:38.113
55.0, -14.656667926348746, 10.131388979963958, 17.861762188374996, -24.98627160396427, 0.01600000075995922, 0.03200000151991844, 1.0240000486373901, 0.0, 0.0, 0.0, 0.0, 0.0, 1.669771598113958E9, 0.0, 2022-11-29 19:26:38.113
56.0, -14.342516330070794, 22.050450138747692, 11.537591363303363, -18.662100778892636, 0.01600000075995922, 0.03200000151991844, 1.0240000486373901, 0.0, 0.0, 0.0, 0.0, 0.0, 1.669771598137917E9, 0.0, 2022-11-29 19:26:38.137
56.0, -9.873335883021355, 17.454113093204796, 11.623609062284231, -10.88310887105763, 0.01600000075995922, 0.03200000151991844, 1.0240000486373901, 0.0, 0.0, 0.0, 0.0, 0.0, 1.669771598137917E9, 0.0, 2022-11-29 19:26:38.137
57.0, -7.6256560096517205, 14.723986125551164, 20.97709885146469, -16.86320890020579, 0.01600000075995922, 0.03200000151991844, 1.0240000486373901, 0.0, 0.0, 0.0, 0.0, 0.0, 1.669771598161941E9, 0.0, 2022-11-29 19:26:38.161
57.0, -15.28871101886034, 11.533851463347673, 30.902793333865702, -14.667887626215816, 0.01600000075995922, 0.03200000151991844, 1.0240000486373901, 0.0, 0.0, 0.0, 0.0, 0.0, 1.669771598161941E9, 0.0, 2022-11-29 19:26:38.161
58.0, -2.124263174831867, 10.83823007158935, 8.949580593965948, -4.798291643150151, 0.01600000075995922, 0.03200000151991844, 1.0240000486373901, 0.0, 0.0, 0.0, 0.0, 0.0, 1.669771598185952E9, 0.0, 2022-11-29 19:26:38.185
58.0, 3.709980756044388, 19.623255067504942, 16.810850300826132, -0.08227779902517796, 0.01600000075995922, 0.03200000151991844, 1.0240000486373901, 0.0, 0.0, 0.0, 0.0, 0.0, 1.669771598185952E9, 0.0, 2022-11-29 19:26:38.185
59.0, -11.990119257941842, 13.486079240217805, 28.59153516124934, -22.12524813786149, 0.01600000075995922, 0.03200000151991844, 1.0240000486373901, 0.0, 0.0, 0.0, 0.0, 0.0, 1.669771598209948E9, 0.0, 2022-11-29 19:26:38.209
59.0, -15.950673311017454, 5.725786832161248, 18.703239678405225, -16.724832601845264, 0.01600000075995922, 0.03200000151991844, 1.0240000486373901, 0.0, 0.0, 0.0, 0.0, 0.0, 1.669771598209948E9, 0.0, 2022-11-29 19:26:38.209
60.0, 4.069011151790619, 10.83075027167797, 8.43721430003643, -9.140315491706133, 0.01600000075995922, 0.03200000151991844, 1.008000047877431, 0.0, 0.0, 0.0, 0.0, 0.0, 1.66977159823396E9, 0.0, 2022-11-29 19:26:38.233
60.0, -14.043324333615601, 1.0696113873273134, 17.33069639466703, -15.25879181921482, 0.01600000075995922, 0.03200000151991844, 1.008000047877431, 0.0, 0.0, 0.0, 0.0, 0.0, 1.66977159823396E9, 0.0, 2022-11-29 19:26:38.233
61.0, -24.847895305603743, -5.62854943331331, 5.804324731230736, -4.6898345444351435, 0.01600000075995922, 0.03200000151991844, 1.008000047877431, 0.0, 0.0, 0.0, 0.0, 0.0, 1.669771598257959E9, 0.0, 2022-11-29 19:26:38.257
61.0, -13.635675238445401, -7.008572516962886, 15.72627931367606, -14.854882624000311, 0.01600000075995922, 0.03200000151991844, 1.008000047877431, 0.0, 0.0, 0.0, 0.0, 0.0, 1.669771598257959E9, 0.0, 2022-11-29 19:26:38.257
62.0, -24.9376529045403, -7.442400911822915, 0.5535051934421062, -5.987579829059541, 0.0, 0.03200000151991844, 1.008000047877431, 0.0, 0.0, 0.0, 0.0, 0.0, 1.66977159828196E9, 0.0, 2022-11-29 19:26:38.281
62.0, -24.324309311807156, 2.288818772882223, 0.19821469765156507, -4.84691034257412, 0.0, 0.03200000151991844, 1.008000047877431, 0.0, 0.0, 0.0, 0.0, 0.0, 1.66977159828196E9, 0.0, 2022-11-29 19:26:38.281
63.0, -23.823162717744708, -14.686587125994265, 21.38474794663489, -14.694066925905645, 0.0, 0.03200000151991844, 1.008000047877431, 0.0, 0.0, 0.0, 0.0, 0.0, 1.669771598305943E9, 0.0, 2022-11-29 19:26:38.305
63.0, -24.60854170843959, -8.803724495694041, 15.614082315005362, -9.521785287186503, 0.0, 0.03200000151991844, 1.008000047877431, 0.0, 0.0, 0.0, 0.0, 0.0, 1.669771598305943E9, 0.0, 2022-11-29 19:26:38.305
64.0, -20.13936126139015, -4.181208150461316, 5.280738737434149, -22.218745636753738, 0.0, 0.03200000151991844, 1.008000047877431, 0.0, 0.0, 0.0, 0.0, 0.0, 1.669771598329946E9, 0.0, 2022-11-29 19:26:38.329
64.0, -13.931127334944904, -13.628195438534021, 5.546271634288132, -27.35736817587167, 0.0, 0.03200000151991844, 1.008000047877431, 0.0, 0.0, 0.0, 0.0, 0.0, 1.669771598329946E9, 0.0, 2022-11-29 19:26:38.329
65.0, -22.56281643267721, -10.202447079122066, 18.400307781994343, -13.931127334944904, 0.0, 0.03200000151991844, 1.008000047877431, 0.0, 0.0, 0.0, 0.0, 0.0, 1.669771598353968E9, 0.0, 2022-11-29 19:26:38.353
65.0, -26.796383182518184, -9.200153890997171, 16.706133102066815, -19.215605972334743, 0.0, 0.03200000151991844, 1.008000047877431, 0.0, 0.0, 0.0, 0.0, 0.0, 1.669771598353968E9, 0.0, 2022-11-29 19:26:38.353
66.0, -28.008110768161714, -10.965386670082808, 25.872627893462777, -29.302116152830422, 0.0, 0.03200000151991844, 1.008000047877431, 0.0, 0.0, 0.0, 0.0, 0.0, 1.669771598377952E9, 0.0, 2022-11-29 19:26:38.377
66.0, -23.591288920491934, -14.686587125994265, 38.857560539618134, -13.923647535033524, 0.0, 0.03200000151991844, 1.008000047877431, 0.0, 0.0, 0.0, 0.0, 0.0, 1.669771598377952E9, 0.0, 2022-11-29 19:26:38.377
67.0, -18.366648682393134, -14.940900322981179, 34.429518992081285, -11.156121567822993, 0.0, 0.03200000151991844, 1.008000047877431, 0.0, 0.0, 0.0, 0.0, 0.0, 1.669771598401957E9, 0.0, 2022-11-29 19:26:38.401
67.0, -15.26253171917051, -8.949580593965948, 27.110534778796136, -8.238999602384865, 0.0, 0.03200000151991844, 1.008000047877431, 0.0, 0.0, 0.0, 0.0, 0.0, 1.669771598401957E9, 0.0, 2022-11-29 19:26:38.401
68.0, -19.26422467175871, -8.231519802473485, 27.36110807582736, -9.2637321902439, 0.0, 0.03200000151991844, 1.008000047877431, 0.0, 0.0, 0.0, 0.0, 0.0, 1.669771598425958E9, 0.0, 2022-11-29 19:26:38.425
68.0, -24.862854905426502, -14.86236242391169, 25.906286993063986, -9.360969589091837, 0.0, 0.03200000151991844, 1.008000047877431, 0.0, 0.0, 0.0, 0.0, 0.0, 1.669771598425958E9, 0.0, 2022-11-29 19:26:38.425
69.0, -16.178807208314538, -18.220792584121227, 27.136714078485966, -8.489572899416089, 0.0, 0.03200000151991844, 1.008000047877431, 0.0, 0.0, 0.0, 0.0, 0.0, 1.66977159844995E9, 0.0, 2022-11-29 19:26:38.449
69.0, -19.821469765156507, -20.12440166156739, 26.826302382163703, -10.127649080008268, 0.0, 0.03200000151991844, 1.008000047877431, 0.0, 0.0, 0.0, 0.0, 0.0, 1.66977159844995E9, 0.0, 2022-11-29 19:26:38.449
70.0, -29.103901455178857, -20.704086154699326, 36.69963826518506, -19.518537868745625, 0.0, 0.03200000151991844, 1.008000047877431, 0.0, 0.0, 0.0, 0.0, 0.0, 1.669771598473959E9, 0.0, 2022-11-29 19:26:38.473
70.0, -20.09822236187756, -22.55907653272152, 29.593828349374235, -9.211373590864241, 0.0, 0.03200000151991844, 1.008000047877431, 0.0, 0.0, 0.0, 0.0, 0.0, 1.669771598473959E9, 0.0, 2022-11-29 19:26:38.473
71.0, -20.87238165270537, -36.056375472806394, 33.50576370302588, -9.312350889667869, 0.0, 0.03200000151991844, 1.008000047877431, 0.0, 0.0, 0.0, 0.0, 0.0, 1.669771598497967E9, 0.0, 2022-11-29 19:26:38.497
71.0, -17.203539796173573, -8.579330498352647, 19.37268177047372, -1.9372681770473719, 0.0, 0.03200000151991844, 1.008000047877431, 0.0, 0.0, 0.0, 0.0, 0.0, 1.669771598497967E9, 0.0, 2022-11-29 19:26:38.497
72.0, -41.06410151347518, -18.669580578804016, 37.185825259424746, 5.8566833306103945, 0.0, 0.03200000151991844, 1.008000047877431, 0.0, 0.0, 0.0, 0.0, 0.0, 1.669771598521963E9, 0.0, 2022-11-29 19:26:38.521
72.0, -30.495144238695502, -20.91726045217365, 33.01209690887481, 6.615883021615446, 0.0, 0.03200000151991844, 1.008000047877431, 0.0, 0.0, 0.0, 0.0, 0.0, 1.669771598521963E9, 0.0, 2022-11-29 19:26:38.521
73.0, -15.771158113144338, 5.598630233667791, 31.81532892305404, -4.196167750284076, 0.0, 0.03200000151991844, 1.008000047877431, 0.0, 0.0, 0.0, 0.0, 0.0, 1.669771598545958E9, 0.0, 2022-11-29 19:26:38.545
73.0, -17.046463998034596, -22.54411693289876, 55.57491334155202, 13.190627143718302, 0.0, 0.03200000151991844, 1.008000047877431, 0.0, 0.0, 0.0, 0.0, 0.0, 1.669771598545958E9, 0.0, 2022-11-29 19:26:38.545
74.0, -18.430226981639862, -8.156721803359687, 39.86733352765441, 15.131635220721364, 0.0, 0.03200000151991844, 1.008000047877431, 0.0, 0.0, 0.0, 0.0, 0.0, 1.669771598569934E9, 0.0, 2022-11-29 19:26:38.569
74.0, -17.031504398211837, 6.675721420906484, 50.133358906023204, -4.241046549752355, 0.0, 0.03200000151991844, 1.008000047877431, 0.0, 0.0, 0.0, 0.0, 0.0, 1.669771598569934E9, 0.0, 2022-11-29 19:26:38.569
75.0, -19.27918427158147, 2.7076875679194927, 48.99642931949347, 5.22090033814311, 0.0, 0.03200000151991844, 1.008000047877431, 0.0, 0.0, 0.0, 0.0, 0.0, 1.669771598593953E9, 0.0, 2022-11-29 19:26:38.593
75.0, -19.25674487184733, 8.504532499238849, 56.81656012684107, 3.7324201557785273, 0.0, 0.03200000151991844, 1.008000047877431, 0.0, 0.0, 0.0, 0.0, 0.0, 1.669771598593953E9, 0.0, 2022-11-29 19:26:38.593
76.0, -1.7839322788640857, -4.682354744523764, 29.216098453849554, 4.663655244745314, 0.0, 0.03200000151991844, 1.008000047877431, 0.0, 0.0, 0.0, 0.0, 0.0, 1.669771598617913E9, 0.0, 2022-11-29 19:26:38.617
76.0, 9.544224686920643, -31.123447431251407, 33.980730997398496, 21.418407046236098, 0.0, 0.03200000151991844, 1.008000047877431, 0.0, 0.0, 0.0, 0.0, 0.0, 1.669771598617913E9, 0.0, 2022-11-29 19:26:38.617
77.0, 1.327664484269917, -58.978222301229835, 65.97931501828134, 27.41720657516271, 0.0, 0.03200000151991844, 1.008000047877431, 0.0, 0.0, 0.0, 0.0, 0.0, 1.669771598641926E9, 0.0, 2022-11-29 19:26:38.641
77.0, -33.37112730462104, 4.858130042441189, 53.55536736547947, -7.390042312443256, 0.0, 0.03200000151991844, 1.008000047877431, 0.0, 0.0, 0.0, 0.0, 0.0, 1.669771598641926E9, 0.0, 2022-11-29 19:26:38.641
78.0, -24.657160407863557, 22.458099233917892, 16.50043860450387, 9.525525187142193, 0.0, 0.03200000151991844, 1.008000047877431, 0.0, 0.0, 0.0, 0.0, 0.0, 1.669771598665953E9, 0.0, 2022-11-29 19:26:38.665
78.0, -21.2688110480085, 2.6328895688056946, 50.451250402256846, -5.991319729015231, 0.0, 0.03200000151991844, 1.008000047877431, 0.0, 0.0, 0.0, 0.0, 0.0, 1.669771598665953E9, 0.0, 2022-11-29 19:26:38.665
79.0, -16.990365498699248, 7.958507105708122, 43.210804088041186, -20.225378960371017, 0.0, 0.03200000151991844, 1.008000047877431, 0.0, 0.0, 0.0, 0.0, 0.0, 1.669771598689942E9, 0.0, 2022-11-29 19:26:38.689
79.0, -17.29329739511013, 5.0526048401370645, 49.748149210587144, 5.441554435528815, 0.0, 0.03200000151991844, 1.008000047877431, 0.0, 0.0, 0.0, 0.0, 0.0, 1.669771598689942E9, 0.0, 2022-11-29 19:26:38.689
80.0, -14.398614829406142, -15.68140051420778, 52.78120807465166, 3.8820161540061235, 0.0, 0.03200000151991844, 1.008000047877431, 0.0, 0.0, 0.0, 0.0, 0.0, 1.669771598713964E9, 0.0, 2022-11-29 19:26:38.713
80.0, -13.164447844028473, -9.188934191130102, 38.468610944226384, 4.618776445277035, 0.0, 0.03200000151991844, 1.008000047877431, 0.0, 0.0, 0.0, 0.0, 0.0, 1.669771598713964E9, 0.0, 2022-11-29 19:26:38.713
81.0, -19.67187376692891, -0.8788764895871282, 46.71883024647832, 0.5909041929990053, 0.0, 0.03200000151991844, 1.008000047877431, 0.0, 0.0, 0.0, 0.0, 0.0, 1.669771598737949E9, 0.0, 2022-11-29 19:26:38.737
81.0, -14.660407826304436, -16.86694880016148, 39.82619462814182, 18.430226981639862, 0.0, 0.03200000151991844, 1.008000047877431, 0.0, 0.0, 0.0, 0.0, 0.0, 1.669771598737949E9, 0.0, 2022-11-29 19:26:38.737
82.0, -16.197506708092988, -35.11392068397254, 57.6580376168713, 22.716152330860496, 0.01600000075995922, 0.03200000151991844, 1.008000047877431, 0.0, 0.0, 0.0, 0.0, 0.0, 1.669771598761961E9, 0.0, 2022-11-29 19:26:38.761
82.0, -35.84320117533207, 10.572697174735367, 49.63221231196076, -3.4781069587916136, 0.01600000075995922, 0.03200000151991844, 1.008000047877431, 0.0, 0.0, 0.0, 0.0, 0.0, 1.669771598761961E9, 0.0, 2022-11-29 19:26:38.761
83.0, -34.50805689115077, -4.476660246960819, 53.25243546906859, -1.9073489774018526, 0.01600000075995922, 0.03200000151991844, 1.008000047877431, 0.0, 0.0, 0.0, 0.0, 0.0, 1.669771598785948E9, 0.0, 2022-11-29 19:26:38.785
83.0, -24.16349361371249, 4.117629851214588, 68.09235849324614, 3.6763216564431787, 0.01600000075995922, 0.03200000151991844, 1.008000047877431, 0.0, 0.0, 0.0, 0.0, 0.0, 1.669771598785948E9, 0.0, 2022-11-29 19:26:38.785
84.0, -21.149134249426425, -1.2154674855992198, 43.222023787908256, 0.8003385905176401, 0.01600000075995922, 0.03200000151991844, 1.008000047877431, 0.0, 0.0, 0.0, 0.0, 0.0, 1.669771598809969E9, 0.0, 2022-11-29 19:26:38.809
84.0, -19.593335867859423, 1.002293188124895, 36.415405868552625, -0.03739899955689907, 0.01600000075995922, 0.03200000151991844, 1.008000047877431, 0.0, 0.0, 0.0, 0.0, 0.0, 1.669771598809969E9, 0.0, 2022-11-29 19:26:38.809
85.0, -25.554736397229135, -5.078784139826894, 48.55512112472206, 6.2194536263123155, 0.01600000075995922, 0.03200000151991844, 1.008000047877431, 0.0, 0.0, 0.0, 0.0, 0.0, 1.669771598833938E9, 0.0, 2022-11-29 19:26:38.833
85.0, -24.862854905426502, -3.493066558614373, 32.798922611400485, -8.983239693567157, 0.01600000075995922, 0.03200000151991844, 1.008000047877431, 0.0, 0.0, 0.0, 0.0, 0.0, 1.669771598833938E9, 0.0, 2022-11-29 19:26:38.833
86.0, -22.50297803338617, -3.8782762540504336, 44.089680577628314, -17.495251992717385, 0.01600000075995922, 0.03200000151991844, 1.008000047877431, 0.0, 0.0, 0.0, 0.0, 0.0, 1.669771598857944E9, 0.0, 2022-11-29 19:26:38.857
86.0, -18.246971883811057, -19.799030365422368, 42.95649089105427, -1.0770911872386932, 0.01600000075995922, 0.03200000151991844, 1.008000047877431, 0.0, 0.0, 0.0, 0.0, 0.0, 1.669771598857944E9, 0.0, 2022-11-29 19:26:38.857
87.0, -16.93052709940821, -17.970219287090003, 39.5756213311106, -13.27290494274348, 0.01600000075995922, 0.03200000151991844, 1.008000047877431, 0.0, 0.0, 0.0, 0.0, 0.0, 1.66977159888195E9, 0.0, 2022-11-29 19:26:38.881
87.0, -19.27918427158147, -9.69382068514824, 39.194151535630226, -9.933174282312393, 0.01600000075995922, 0.03200000151991844, 1.008000047877431, 0.0, 0.0, 0.0, 0.0, 0.0, 1.66977159888195E9, 0.0, 2022-11-29 19:26:38.881
88.0, -31.878907222300768, -17.042724098078907, 27.293789876624942, -3.092897263355553, 0.01600000075995922, 0.03200000151991844, 1.008000047877431, 0.0, 0.0, 0.0, 0.0, 0.0, 1.669771598905972E9, 0.0, 2022-11-29 19:26:38.905
88.0, -31.587195025756955, -2.3187379725277424, 29.72098494786769, -6.4588072234764695, 0.01600000075995922, 0.03200000151991844, 1.008000047877431, 0.0, 0.0, 0.0, 0.0, 0.0, 1.669771598905972E9, 0.0, 2022-11-29 19:26:38.905
89.0, -35.30839548166841, -25.169526701793075, 40.402139221318066, -3.586564057506621, 0.01600000075995922, 0.03200000151991844, 1.008000047877431, 0.0, 0.0, 0.0, 0.0, 0.0, 1.669771598929927E9, 0.0, 2022-11-29 19:26:38.929
89.0, -34.59407459013164, -26.370034587569535, 32.772743311710656, -5.108703339472413, 0.01600000075995922, 0.03200000151991844, 1.008000047877431, 0.0, 0.0, 0.0, 0.0, 0.0, 1.669771598929927E9, 0.0, 2022-11-29 19:26:38.929
90.0, -21.246371648274362, -8.687787597067654, 27.222731777466834, 7.105809915810823, 0.01600000075995922, 0.03200000151991844, 1.0240000486373901, 0.0, 0.0, 0.0, 0.0, 0.0, 1.66977159895395E9, 0.0, 2022-11-29 19:26:38.953
90.0, -34.369680592790246, -17.25215849559754, 21.171573649160564, 7.565817610360682, 0.01600000075995922, 0.03200000151991844, 1.0240000486373901, 0.0, 0.0, 0.0, 0.0, 0.0, 1.66977159895395E9, 0.0, 2022-11-29 19:26:38.953
91.0, -39.227810635231435, -17.472812592983246, 39.08943433687091, -14.024624833837152, 0.01600000075995922, 0.01600000075995922, 1.0240000486373901, 0.0, 0.0, 0.0, 0.0, 0.0, 1.669771598977961E9, 0.0, 2022-11-29 19:26:38.977
91.0, -21.433366646058857, -15.397168117575347, 47.95299723185599, -8.003385905176401, 0.01600000075995922, 0.01600000075995922, 1.0240000486373901, 0.0, 0.0, 0.0, 0.0, 0.0, 1.669771598977961E9, 0.0, 2022-11-29 19:26:38.977
92.0, -19.223085772246122, -12.827856848016381, 41.45679100882262, -6.690681020729244, 0.01600000075995922, 0.01600000075995922, 1.0240000486373901, 0.0, 0.0, 0.0, 0.0, 0.0, 1.669771599001954E9, 0.0, 2022-11-29 19:26:39.001
92.0, -22.843308929353952, -26.51215078588575, 43.674551682546735, -15.68140051420778, 0.01600000075995922, 0.01600000075995922, 1.0240000486373901, 0.0, 0.0, 0.0, 0.0, 0.0, 1.669771599001954E9, 0.0, 2022-11-29 19:26:39.001
93.0, -29.76960364729166, -21.429626746103168, 40.432058420963585, -10.8943285709247, 0.01600000075995922, 0.01600000075995922, 1.0240000486373901, 0.0, 0.0, 0.0, 0.0, 0.0, 1.669771599025962E9, 0.0, 2022-11-29 19:26:39.025
93.0, -26.63182758446783, -8.631689097732306, 34.29862249363214, -11.507672163657844, 0.01600000075995922, 0.01600000075995922, 1.0240000486373901, 0.0, 0.0, 0.0, 0.0, 0.0, 1.669771599025962E9, 0.0, 2022-11-29 19:26:39.025
94.0, -28.21380526572466, -12.719399749301374, 34.380900292657316, -18.355428982526064, 0.01600000075995922, 0.01600000075995922, 1.0240000486373901, 0.0, 0.0, 0.0, 0.0, 0.0, 1.669771599049944E9, 0.0, 2022-11-29 19:26:39.049
94.0, -26.99459788016975, -14.07698343321681, 22.57403613254428, -13.65437473822385, 0.01600000075995922, 0.01600000075995922, 1.0240000486373901, 0.0, 0.0, 0.0, 0.0, 0.0, 1.669771599049944E9, 0.0, 2022-11-29 19:26:39.049
95.0, -28.404540163464844, -1.0995305869728327, 12.999892245978117, -1.8998691774904728, 0.01600000075995922, 0.01600000075995922, 1.0240000486373901, 0.0, 0.0, 0.0, 0.0, 0.0, 1.669771599073961E9, 0.0, 2022-11-29 19:26:39.073
95.0, -37.683231953531504, -10.576437074691057, 38.94731813855469, -29.246017653495073, 0.01600000075995922, 0.01600000075995922, 1.0240000486373901, 0.0, 0.0, 0.0, 0.0, 0.0, 1.669771599073961E9, 0.0, 2022-11-29 19:26:39.073
96.0, -39.47090413235128, -31.190765630453825, 40.3535205218941, -29.38065405189991, 0.01600000075995922, 0.01600000075995922, 1.0240000486373901, 0.0, 0.0, 0.0, 0.0, 0.0, 1.669771599097964E9, 0.0, 2022-11-29 19:26:39.097
96.0, -38.27413614653051, -25.891327393241227, 36.396706368774176, -4.981546740978956, 0.01600000075995922, 0.01600000075995922, 1.0240000486373901, 0.0, 0.0, 0.0, 0.0, 0.0, 1.669771599097964E9, 0.0, 2022-11-29 19:26:39.097
97.0, -18.93137357570231, -22.357121935114264, 30.52132353838533, -37.07736816070974, 0.01600000075995922, 0.01600000075995922, 1.0240000486373901, 0.0, 0.0, 0.0, 0.0, 0.0, 1.669771599121957E9, 0.0, 2022-11-29 19:26:39.121
97.0, -32.2005386184901, -35.03538278490305, 22.259884536266327, -19.432520169764757, 0.01600000075995922, 0.01600000075995922, 1.0240000486373901, 0.0, 0.0, 0.0, 0.0, 0.0, 1.669771599121957E9, 0.0, 2022-11-29 19:26:39.121
98.0, -53.98171596042812, -7.371342812664807, 34.56041549053043, -24.331789111718535, 0.01600000075995922, 0.01600000075995922, 1.0240000486373901, 0.0, 0.0, 0.0, 0.0, 0.0, 1.669771599145948E9, 0.0, 2022-11-29 19:26:39.145
98.0, -46.81232774537057, -32.57452861405909, 47.739822934381664, -23.052743326872587, 0.01600000075995922, 0.01600000075995922, 1.0240000486373901, 0.0, 0.0, 0.0, 0.0, 0.0, 1.669771599145948E9, 0.0, 2022-11-29 19:26:39.145
99.0, -40.70881101768464, -21.930773340165615, 35.94791837409139, -29.986517844721675, 0.01600000075995922, 0.01600000075995922, 1.0240000486373901, 0.0, 0.0, 0.0, 0.0, 0.0, 1.669771599169893E9, 0.0, 2022-11-29 19:26:39.169
99.0, -43.91390527971089, -26.17555978987366, 26.99833778012544, -16.55279720388353, 0.01600000075995922, 0.01600000075995922, 1.0240000486373901, 0.0, 0.0, 0.0, 0.0, 0.0, 1.669771599169893E9, 0.0, 2022-11-29 19:26:39.169
100.0, -32.035983020439744, -38.057221949100494, 11.720846461132169, -10.015452081337571, 0.01600000075995922, 0.01600000075995922, 1.008000047877431, 0.0, 0.0, 0.0, 0.0, 0.0, 1.669771599193945E9, 0.0, 2022-11-29 19:26:39.193
100.0, -32.22297801822424, -10.823270471766591, 49.23578291665763, -33.01209690887481, 0.01600000075995922, 0.01600000075995922, 1.008000047877431, 0.0, 0.0, 0.0, 0.0, 0.0, 1.669771599193945E9, 0.0, 2022-11-29 19:26:39.193
0.0, 51.0066255456768, -199.41894543729722, -46.77679869579151, 294.3880949621089, 0.01600000075995922, 0.01600000075995922, 1.008000047877431, 0.0, 0.0, 0.0, 0.0, 0.0, 1.669771599217953E9, 0.0, 2022-11-29 19:26:39.217
1.0, 60.91362052829936, -198.52136944793165, -48.97585986973718, 303.37133465567604, 0.01600000075995922, 0.01600000075995922, 1.008000047877431, 0.0, 0.0, 0.0, 0.0, 0.0, 1.669771599241942E9, 0.0, 2022-11-29 19:26:39.241
1.0, 58.90903415204957, -194.74033059272915, -42.4833935466595, 306.03040352417156, 0.01600000075995922, 0.01600000075995922, 1.008000047877431, 0.0, 0.0, 0.0, 0.0, 0.0, 1.669771599241942E9, 0.0, 2022-11-29 19:26:39.241
2.0, 52.00891873380169, -200.97474381886423, -53.78911111271009, 296.3365828390233, 0.01600000075995922, 0.01600000075995922, 1.008000047877431, 0.0, 0.0, 0.0, 0.0, 0.0, 1.669771599265965E9, 0.0, 2022-11-29 19:26:39.265
2.0, 61.00337812723592, -195.67530558165163, -53.44878021674231, 310.9446320659481, 0.01600000075995922, 0.01600000075995922, 1.008000047877431, 0.0, 0.0, 0.0, 0.0, 0.0, 1.669771599265965E9, 0.0, 2022-11-29 19:26:39.265
3.0, 52.768118424806744, -193.03493621293455, -45.75206610793248, 294.6872869585641, 0.01600000075995922, 0.01600000075995922, 1.008000047877431, 0.0, 0.0, 0.0, 0.0, 0.0, 1.669771599289939E9, 0.0, 2022-11-29 19:26:39.289
3.0, 49.080577068496495, -209.05292772315443, -44.73855321994051, 289.0849168249406, 0.01600000075995922, 0.01600000075995922, 1.008000047877431, 0.0, 0.0, 0.0, 0.0, 0.0, 1.669771599289939E9, 0.0, 2022-11-29 19:26:39.289
4.0, 51.915421234909445, -193.75299700442702, -44.76099261967465, 311.7225312567316, 0.01600000075995922, 0.01600000075995922, 1.008000047877431, 0.0, 0.0, 0.0, 0.0, 0.0, 1.669771599313938E9, 0.0, 2022-11-29 19:26:39.313
4.0, 52.86161592369899, -214.42716395948082, -35.856290825176984, 311.2774831620045, 0.01600000075995922, 0.01600000075995922, 1.008000047877431, 0.0, 0.0, 0.0, 0.0, 0.0, 1.669771599313938E9, 0.0, 2022-11-29 19:26:39.313
5.0, 56.80721037695184, -181.54222364909947, -52.1921738316305, 301.55748317716643, 0.01600000075995922, 0.01600000075995922, 1.008000047877431, 0.0, 0.0, 0.0, 0.0, 0.0, 1.669771599337944E9, 0.0, 2022-11-29 19:26:39.337
5.0, 43.95691412920132, -191.69605202879757, -54.54083100380376, 301.29943008022383, 0.01600000075995922, 0.01600000075995922, 1.008000047877431, 0.0, 0.0, 0.0, 0.0, 0.0, 1.669771599337944E9, 0.0, 2022-11-29 19:26:39.337
6.0, 53.172027620021254, -200.26790272723883, -49.65652166167274, 300.1924196933396, 0.01600000075995922, 0.01600000075995922, 1.008000047877431, 0.0, 0.0, 0.0, 0.0, 0.0, 1.669771599361949E9, 0.0, 2022-11-29 19:26:39.361
6.0, 62.338522411417216, -194.08210820052773, -33.58243165211752, 296.28422423964366, 0.01600000075995922, 0.01600000075995922, 1.008000047877431, 0.0, 0.0, 0.0, 0.0, 0.0, 1.669771599361949E9, 0.0, 2022-11-29 19:26:39.361
7.0, 57.506571668665856, -204.1312193814665, -45.27709881355986, 306.9429391133599, 0.01600000075995922, 0.01600000075995922, 1.008000047877431, 0.0, 0.0, 0.0, 0.0, 0.0, 1.669771599385929E9, 0.0, 2022-11-29 19:26:39.385
7.0, 50.03425155719742, -189.5755287539214, -53.64325501443818, 298.92459360836074, 0.01600000075995922, 0.01600000075995922, 1.008000047877431, 0.0, 0.0, 0.0, 0.0, 0.0, 1.669771599385929E9, 0.0, 2022-11-29 19:26:39.385
8.0, 62.364701711107045, -192.74696391634643, -64.20473248930648, 314.5798148228787, 0.01600000075995922, 0.01600000075995922, 1.008000047877431, 0.0, 0.0, 0.0, 0.0, 0.0, 1.669771599409987E9, 0.0, 2022-11-29 19:26:39.409
8.0, 52.704540125560015, -194.43739869631827, -46.09239700390026, 297.43237352604046, 0.01600000075995922, 0.01600000075995922, 1.008000047877431, 0.0, 0.0, 0.0, 0.0, 0.0, 1.669771599409987E9, 0.0, 2022-11-29 19:26:39.409
9.0, 56.96428617509082, -189.19405895844102, -36.51451321737841, 294.1113423653878, 0.01600000075995922, 0.01600000075995922, 1.008000047877431, 0.0, 0.0, 0.0, 0.0, 0.0, 1.669771599433945E9, 0.0, 2022-11-29 19:26:39.433
9.0, 61.560623220633715, -193.73055760469288, -37.385909907054156, 287.6001765425317, 0.01600000075995922, 0.01600000075995922, 1.008000047877431, 0.0, 0.0, 0.0, 0.0, 0.0, 1.669771599433945E9, 0.0, 2022-11-29 19:26:39.433
10.0, 52.44648702861741, -191.46791813150048, -45.931581305805594, 291.54203109582886, 0.01600000075995922, 0.01600000075995922, 1.0240000486373901, 0.0, 0.0, 0.0, 0.0, 0.0, 1.669771599457958E9, 0.0, 2022-11-29 19:26:39.457
10.0, 60.44613303383812, -189.19031905848533, -39.3343977839686, 286.95691375015303, 0.01600000075995922, 0.01600000075995922, 1.0240000486373901, 0.0, 0.0, 0.0, 0.0, 0.0, 1.669771599457958E9, 0.0, 2022-11-29 19:26:39.457
11.0, 53.43382061691955, -194.17934559937567, -43.76243933150545, 298.65906071150675, 0.01600000075995922, 0.03200000151991844, 1.0240000486373901, 0.0, 0.0, 0.0, 0.0, 0.0, 1.669771599481946E9, 0.0, 2022-11-29 19:26:39.481
11.0, 57.2672180715017, -199.14593274053186, -40.57604456925765, 298.7151592108421, 0.01600000075995922, 0.03200000151991844, 1.0240000486373901, 0.0, 0.0, 0.0, 0.0, 0.0, 1.669771599481946E9, 0.0, 2022-11-29 19:26:39.481
12.0, 63.191219601314515, -189.22771805804223, -56.25370518350974, 304.69899913994595, 0.01600000075995922, 0.03200000151991844, 1.0240000486373901, 0.0, 0.0, 0.0, 0.0, 0.0, 1.669771599505974E9, 0.0, 2022-11-29 19:26:39.505
12.0, 49.02073866920546, -207.48590964172035, -49.98937275772914, 306.37073442013934, 0.01600000075995922, 0.03200000151991844, 1.0240000486373901, 0.0, 0.0, 0.0, 0.0, 0.0, 1.669771599505974E9, 0.0, 2022-11-29 19:26:39.505
13.0, 53.32162361824885, -185.69351259991527, -48.717806772794574, 307.89287370210513, 0.01600000075995922, 0.03200000151991844, 1.0240000486373901, 0.0, 0.0, 0.0, 0.0, 0.0, 1.669771599529952E9, 0.0, 2022-11-29 19:26:39.529
13.0, 49.25635236641392, -204.8791993726045, -28.537306611891836, 296.91626733215526, 0.01600000075995922, 0.03200000151991844, 1.0240000486373901, 0.0, 0.0, 0.0, 0.0, 0.0, 1.669771599529952E9, 0.0, 2022-11-29 19:26:39.529
14.0, 47.98852628143504, -205.64213896356523, -37.56168520497158, 287.14016884798184, 0.01600000075995922, 0.03200000151991844, 1.0240000486373901, 0.0, 0.0, 0.0, 0.0, 0.0, 1.66977159955397E9, 0.0, 2022-11-29 19:26:39.553
14.0, 57.73096566600725, -187.02865688409656, -31.719961474183947, 285.0121657731943, 0.01600000075995922, 0.03200000151991844, 1.0240000486373901, 0.0, 0.0, 0.0, 0.0, 0.0, 1.66977159955397E9, 0.0, 2022-11-29 19:26:39.553
15.0, 55.73011918971315, -183.38973422721028, -42.45347434701398, 284.5708575784229, 0.01600000075995922, 0.03200000151991844, 1.0240000486373901, 0.0, 0.0, 0.0, 0.0, 0.0, 1.669771599577937E9, 0.0, 2022-11-29 19:26:39.577
15.0, 56.08540968550369, -181.1233548540622, -58.306910259183496, 298.59174251230434, 0.01600000075995922, 0.03200000151991844, 1.0240000486373901, 0.0, 0.0, 0.0, 0.0, 0.0, 1.669771599577937E9, 0.0, 2022-11-29 19:26:39.577
16.0, 52.48014612821862, -197.41809896100312, -33.7021084506996, 287.596436642576, 0.01600000075995922, 0.03200000151991844, 1.0240000486373901, 0.0, 0.0, 0.0, 0.0, 0.0, 1.669771599601948E9, 0.0, 2022-11-29 19:26:39.601
16.0, 46.05499800434336, -199.1272332407534, -43.13787603890523, 290.76039200508967, 0.01600000075995922, 0.03200000151991844, 1.0240000486373901, 0.0, 0.0, 0.0, 0.0, 0.0, 1.669771599601948E9, 0.0, 2022-11-29 19:26:39.601
17.0, 56.306063782889396, -206.16198505740613, -27.703308921772987, 295.84291604487225, 0.01600000075995922, 0.03200000151991844, 1.0240000486373901, 0.0, 0.0, 0.0, 0.0, 0.0, 1.669771599625959E9, 0.0, 2022-11-29 19:26:39.625
17.0, 63.81578289391473, -201.90223900787532, -54.45855320477858, 293.62141547119245, 0.01600000075995922, 0.03200000151991844, 1.0240000486373901, 0.0, 0.0, 0.0, 0.0, 0.0, 1.669771599625959E9, 0.0, 2022-11-29 19:26:39.625
18.0, 52.20339353149757, -194.74407049268484, -55.06815689755604, 296.76667133392766, 0.01600000075995922, 0.03200000151991844, 1.0240000486373901, 0.0, 0.0, 0.0, 0.0, 0.0, 1.669771599649948E9, 0.0, 2022-11-29 19:26:39.649
18.0, 55.098076097201556, -197.56021515931934, -39.18854168569669, 286.897075350862, 0.01600000075995922, 0.03200000151991844, 1.0240000486373901, 0.0, 0.0, 0.0, 0.0, 0.0, 1.669771599649948E9, 0.0, 2022-11-29 19:26:39.649
19.0, 47.853889883030206, -203.42437828984112, -34.996113835368305, 279.58183103753254, 0.01600000075995922, 0.03200000151991844, 1.0240000486373901, 0.0, 0.0, 0.0, 0.0, 0.0, 1.669771599673955E9, 0.0, 2022-11-29 19:26:39.673
19.0, 47.835190383251756, -184.47430521436036, -31.518006876576692, 289.5561442193575, 0.01600000075995922, 0.03200000151991844, 1.0240000486373901, 0.0, 0.0, 0.0, 0.0, 0.0, 1.669771599673955E9, 0.0, 2022-11-29 19:26:39.673
20.0, 45.69970750855282, -190.17391274683177, -43.837237330619246, 293.7897109691985, 0.01600000075995922, 0.03200000151991844, 1.008000047877431, 0.0, 0.0, 0.0, 0.0, 0.0, 1.669771599697953E9, 0.0, 2022-11-29 19:26:39.697
20.0, 45.69970750855282, -216.4317503357306, -34.79041933780536, 291.4186143972911, 0.01600000075995922, 0.03200000151991844, 1.008000047877431, 0.0, 0.0, 0.0, 0.0, 0.0, 1.669771599697953E9, 0.0, 2022-11-29 19:26:39.697
21.0, 48.45227387594059, -197.30216206237674, -38.50787989376113, 295.4951053489931, 0.01600000075995922, 0.03200000151991844, 1.008000047877431, 0.0, 0.0, 0.0, 0.0, 0.0, 1.669771599721919E9, 0.0, 2022-11-29 19:26:39.721
21.0, 43.444547835271806, -205.90019206050783, -41.3352442602627, 297.4286336260848, 0.01600000075995922, 0.03200000151991844, 1.008000047877431, 0.0, 0.0, 0.0, 0.0, 0.0, 1.669771599721919E9, 0.0, 2022-11-29 19:26:39.721
22.0, 47.472420087549835, -195.62668688222766, -41.60825695702806, 281.5602381140925, 0.01600000075995922, 0.03200000151991844, 1.008000047877431, 0.0, 0.0, 0.0, 0.0, 0.0, 1.669771599745957E9, 0.0, 2022-11-29 19:26:39.745
22.0, 60.03848393866792, -206.49483615346253, -45.17986141471192, 291.8337432923727, 0.01600000075995922, 0.03200000151991844, 1.008000047877431, 0.0, 0.0, 0.0, 0.0, 0.0, 1.669771599745957E9, 0.0, 2022-11-29 19:26:39.745
23.0, 53.71431311359629, -196.03433597739786, -47.057291192468256, 281.5864174137823, 0.01600000075995922, 0.03200000151991844, 1.008000047877431, 0.0, 0.0, 0.0, 0.0, 0.0, 1.66977159976996E9, 0.0, 2022-11-29 19:26:39.769
23.0, 49.26757206628099, -190.44692544359714, -49.951973758172244, 292.8883950798772, 0.01600000075995922, 0.03200000151991844, 1.008000047877431, 0.0, 0.0, 0.0, 0.0, 0.0, 1.66977159976996E9, 0.0, 2022-11-29 19:26:39.769
24.0, 49.922054558526725, -203.04290849436074, -41.821431254502386, 285.92096146242693, 0.01600000075995922, 0.03200000151991844, 1.008000047877431, 0.0, 0.0, 0.0, 0.0, 0.0, 1.669771599793956E9, 0.0, 2022-11-29 19:26:39.793
24.0, 50.91312804678455, -196.84215436782688, -46.8927355944179, 286.9756132499315, 0.01600000075995922, 0.03200000151991844, 1.008000047877431, 0.0, 0.0, 0.0, 0.0, 0.0, 1.669771599793956E9, 0.0, 2022-11-29 19:26:39.793
25.0, 61.89347431669012, -194.8712270911783, -39.083824486937374, 290.8239703043364, 0.01600000075995922, 0.03200000151991844, 1.008000047877431, 0.0, 0.0, 0.0, 0.0, 0.0, 1.669771599817954E9, 0.0, 2022-11-29 19:26:39.817
25.0, 53.70309341372922, -200.81392812076956, -45.79694490740076, 279.46963403886184, 0.01600000075995922, 0.03200000151991844, 1.008000047877431, 0.0, 0.0, 0.0, 0.0, 0.0, 1.669771599817954E9, 0.0, 2022-11-29 19:26:39.817
26.0, 50.53539815125987, -188.603154765442, -45.81190450722352, 291.32511689839885, 0.01600000075995922, 0.03200000151991844, 1.008000047877431, 0.0, 0.0, 0.0, 0.0, 0.0, 1.669771599841958E9, 0.0, 2022-11-29 19:26:39.841
26.0, 54.98213919857517, -188.68917246442288, -48.50089257536456, 289.1185759245418, 0.01600000075995922, 0.03200000151991844, 1.008000047877431, 0.0, 0.0, 0.0, 0.0, 0.0, 1.669771599841958E9, 0.0, 2022-11-29 19:26:39.841
27.0, 50.87946894718334, -217.41534402407706, -33.047625958453864, 291.88236199179664, 0.01600000075995922, 0.03200000151991844, 1.008000047877431, 0.0, 0.0, 0.0, 0.0, 0.0, 1.669771599865954E9, 0.0, 2022-11-29 19:26:39.865
27.0, 54.82506340043619, -199.1309731407091, -29.442362401168793, 295.22209265222773, 0.01600000075995922, 0.03200000151991844, 1.008000047877431, 0.0, 0.0, 0.0, 0.0, 0.0, 1.669771599865954E9, 0.0, 2022-11-29 19:26:39.865
28.0, 46.35045010084286, -195.63042678218335, -20.586279306095093, 285.7900649639778, 0.01600000075995922, 0.03200000151991844, 1.008000047877431, 0.0, 0.0, 0.0, 0.0, 0.0, 1.669771599889949E9, 0.0, 2022-11-29 19:26:39.889
28.0, 51.29833774222061, -193.11347411200404, -38.54901879327372, 293.65507457079366, 0.01600000075995922, 0.03200000151991844, 1.008000047877431, 0.0, 0.0, 0.0, 0.0, 0.0, 1.669771599889949E9, 0.0, 2022-11-29 19:26:39.889
29.0, 53.65447471430525, -195.74262378085405, -42.06452475162223, 294.8705420563929, 0.01600000075995922, 0.03200000151991844, 1.008000047877431, 0.0, 0.0, 0.0, 0.0, 0.0, 1.669771599913955E9, 0.0, 2022-11-29 19:26:39.913
29.0, 45.441654411610216, -193.10225441213697, -33.15982295712456, 275.43428198667243, 0.01600000075995922, 0.03200000151991844, 1.008000047877431, 0.0, 0.0, 0.0, 0.0, 0.0, 1.669771599913955E9, 0.0, 2022-11-29 19:26:39.913
30.0, 55.24767209542915, -191.78206972777843, -36.78004611423239, 300.4280333905481, 0.01600000075995922, 0.03200000151991844, 1.0240000486373901, 0.0, 0.0, 0.0, 0.0, 0.0, 1.669771599937946E9, 0.0, 2022-11-29 19:26:39.937
30.0, 44.56277792202309, -200.82514782063663, -40.1122969747521, 294.8294031568803, 0.01600000075995922, 0.03200000151991844, 1.0240000486373901, 0.0, 0.0, 0.0, 0.0, 0.0, 1.669771599937946E9, 0.0, 2022-11-29 19:26:39.937
31.0, 33.26080025592819, -188.85372806247324, -29.292766402941197, 286.88211575103924, 0.01600000075995922, 0.03200000151991844, 1.0240000486373901, 0.0, 0.0, 0.0, 0.0, 0.0, 1.669771599961997E9, 0.0, 2022-11-29 19:26:39.961
31.0, 45.68474790873006, -183.7899035224691, -19.48300881916657, 285.7077871649526, 0.01600000075995922, 0.03200000151991844, 1.0240000486373901, 0.0, 0.0, 0.0, 0.0, 0.0, 1.669771599961997E9, 0.0, 2022-11-29 19:26:39.961
32.0, 46.35045010084286, -187.91501317359507, -24.453335860278457, 272.1581296254881, 0.0, 0.03200000151991844, 1.0240000486373901, 0.0, 0.0, 0.0, 0.0, 0.0, 1.669771599985955E9, 0.0, 2022-11-29 19:26:39.985
32.0, 50.16514805564657, -189.7176449522376, -24.127964564133435, 278.87498994590715, 0.0, 0.03200000151991844, 1.0240000486373901, 0.0, 0.0, 0.0, 0.0, 0.0, 1.669771599985955E9, 0.0, 2022-11-29 19:26:39.985
33.0, 54.18554050801322, -188.17306627053767, -17.08199304761365, 268.926856063772, 0.0, 0.03200000151991844, 1.0240000486373901, 0.0, 0.0, 0.0, 0.0, 0.0, 1.669771600009943E9, 0.0, 2022-11-29 19:26:40.009
33.0, 45.494013010989875, -186.87906088586897, -18.129165035206825, 261.9182835468091, 0.0, 0.03200000151991844, 1.0240000486373901, 0.0, 0.0, 0.0, 0.0, 0.0, 1.669771600009943E9, 0.0, 2022-11-29 19:26:40.009
34.0, 49.484486263711005, -180.22577886469662, -25.018060753587633, 273.003347015474, 0.0, 0.03200000151991844, 1.0240000486373901, 0.0, 0.0, 0.0, 0.0, 0.0, 1.66977160003395E9, 0.0, 2022-11-29 19:26:40.033
34.0, 46.19337430270389, -186.24701779335737, -25.867018043529242, 269.68979565473273, 0.0, 0.03200000151991844, 1.0240000486373901, 0.0, 0.0, 0.0, 0.0, 0.0, 1.66977160003395E9, 0.0, 2022-11-29 19:26:40.033
35.0, 39.34935738379136, -188.83876846265048, -26.76459403289482, 273.7401073067449, 0.0, 0.03200000151991844, 1.0240000486373901, 0.0, 0.0, 0.0, 0.0, 0.0, 1.669771600057964E9, 0.0, 2022-11-29 19:26:40.057
35.0, 49.491966063622385, -186.7593840872869, -38.57145819300786, 284.28662518179044, 0.0, 0.03200000151991844, 1.0240000486373901, 0.0, 0.0, 0.0, 0.0, 0.0, 1.669771600057964E9, 0.0, 2022-11-29 19:26:40.057
36.0, 49.884655558969826, -191.07896853610873, -41.002393164206296, 272.1917887250893, 0.0, 0.03200000151991844, 1.0240000486373901, 0.0, 0.0, 0.0, 0.0, 0.0, 1.669771600081946E9, 0.0, 2022-11-29 19:26:40.081
36.0, 49.899615158792585, -185.6411540005356, -27.1797229279764, 272.472281221766, 0.0, 0.03200000151991844, 1.0240000486373901, 0.0, 0.0, 0.0, 0.0, 0.0, 1.669771600081946E9, 0.0, 2022-11-29 19:26:40.081
37.0, 46.36914960062131, -193.44632520806044, -32.35200456669554, 284.1931276828982, 0.0, 0.03200000151991844, 1.0240000486373901, 0.0, 0.0, 0.0, 0.0, 0.0, 1.669771600105947E9, 0.0, 2022-11-29 19:26:40.105
37.0, 51.0066255456768, -193.29672920983285, -41.36142355995253, 277.10227736691013, 0.0, 0.03200000151991844, 1.0240000486373901, 0.0, 0.0, 0.0, 0.0, 0.0, 1.669771600105947E9, 0.0, 2022-11-29 19:26:40.105
38.0, 50.670034549664706, -184.87821440957487, -17.624278541188687, 274.1888953014277, 0.0, 0.03200000151991844, 1.0240000486373901, 0.0, 0.0, 0.0, 0.0, 0.0, 1.669771600129955E9, 0.0, 2022-11-29 19:26:40.129
38.0, 42.58437084546313, -186.29189659282565, -29.19552900409326, 273.57555170869455, 0.0, 0.03200000151991844, 1.0240000486373901, 0.0, 0.0, 0.0, 0.0, 0.0, 1.669771600129955E9, 0.0, 2022-11-29 19:26:40.129
39.0, 49.151635167654604, -190.21505164634436, -24.30373986205086, 274.7386605949141, 0.0, 0.03200000151991844, 1.0240000486373901, 0.0, 0.0, 0.0, 0.0, 0.0, 1.669771600153937E9, 0.0, 2022-11-29 19:26:40.153
39.0, 49.8210772597231, -199.79293543286622, -23.91479026665911, 280.35599032836035, 0.0, 0.03200000151991844, 1.0240000486373901, 0.0, 0.0, 0.0, 0.0, 0.0, 1.669771600153937E9, 0.0, 2022-11-29 19:26:40.153
40.0, 38.70983449136838, -186.83792198635638, -33.93772214790806, 277.7717194589786, 0.0, 0.03200000151991844, 1.0240000486373901, 0.0, 0.0, 0.0, 0.0, 0.0, 1.669771600178932E9, 0.0, 2022-11-29 19:26:40.178
40.0, 43.96813382906839, -193.85771420318633, -18.30120043316856, 285.77136546419933, 0.0, 0.03200000151991844, 1.0240000486373901, 0.0, 0.0, 0.0, 0.0, 0.0, 1.669771600178932E9, 0.0, 2022-11-29 19:26:40.178
41.0, 46.47760669933632, -191.1649862350896, -23.10697187623009, 273.6353901079856, 0.0, 0.03200000151991844, 1.0240000486373901, 0.0, 0.0, 0.0, 0.0, 0.0, 1.669771600202936E9, 0.0, 2022-11-29 19:26:40.202
41.0, 47.21810689056292, -192.6833856170997, -28.608364711049944, 261.690149649512, 0.0, 0.03200000151991844, 1.0240000486373901, 0.0, 0.0, 0.0, 0.0, 0.0, 1.669771600202936E9, 0.0, 2022-11-29 19:26:40.202
42.0, 43.904555529821664, -191.21734483446926, -34.39025004254654, 282.0838241078891, 0.0, 0.03200000151991844, 1.0240000486373901, 0.0, 0.0, 0.0, 0.0, 0.0, 1.669771600226957E9, 0.0, 2022-11-29 19:26:40.226
42.0, 58.03015766246244, -195.80994198005646, -40.71816076757386, 268.27611347148195, 0.0, 0.03200000151991844, 1.0240000486373901, 0.0, 0.0, 0.0, 0.0, 0.0, 1.669771600226957E9, 0.0, 2022-11-29 19:26:40.226
43.0, 51.133782144170254, -183.53933022543788, -42.86486334213987, 278.16440895432606, 0.0, 0.03200000151991844, 1.0240000486373901, 0.0, 0.0, 0.0, 0.0, 0.0, 1.66977160025096E9, 0.0, 2022-11-29 19:26:40.250
43.0, 38.47048089420423, -186.19091929402202, -23.641777569893748, 279.8922427338548, 0.0, 0.03200000151991844, 1.0240000486373901, 0.0, 0.0, 0.0, 0.0, 0.0, 1.66977160025096E9, 0.0, 2022-11-29 19:26:40.250
44.0, 42.82372444262728, -195.54814898315817, -47.468680187594146, 280.7075409241952, 0.0, 0.03200000151991844, 1.0240000486373901, 0.0, 0.0, 0.0, 0.0, 0.0, 1.669771600274961E9, 0.0, 2022-11-29 19:26:40.274
44.0, 51.65362823801115, -192.02516322489828, -32.50534046487883, 282.06512460811064, 0.0, 0.03200000151991844, 1.0240000486373901, 0.0, 0.0, 0.0, 0.0, 0.0, 1.669771600274961E9, 0.0, 2022-11-29 19:26:40.274
45.0, 47.928687882144004, -196.29612897429615, -32.66615616297349, 282.6261096014641, 0.0, 0.03200000151991844, 1.0240000486373901, 0.0, 0.0, 0.0, 0.0, 0.0, 1.669771600298945E9, 0.0, 2022-11-29 19:26:40.298
45.0, 42.614290045108646, -205.32798736728728, -36.54443241702393, 280.673881824594, 0.0, 0.03200000151991844, 1.0240000486373901, 0.0, 0.0, 0.0, 0.0, 0.0, 1.669771600298945E9, 0.0, 2022-11-29 19:26:40.298
46.0, 37.32233160780743, -192.6497265174985, -17.44476334331557, 282.50643280288205, 0.0, 0.03200000151991844, 1.0240000486373901, 0.0, 0.0, 0.0, 0.0, 0.0, 1.669771600322968E9, 0.0, 2022-11-29 19:26:40.322
46.0, 27.041346629615873, -203.05038829427212, -19.729842216242105, 277.9213154572062, 0.0, 0.03200000151991844, 1.0240000486373901, 0.0, 0.0, 0.0, 0.0, 0.0, 1.669771600322968E9, 0.0, 2022-11-29 19:26:40.322
47.0, 43.26503263739869, -194.15316629968584, -31.342231578659266, 281.86690991045907, 0.0, 0.03200000151991844, 1.0240000486373901, 0.0, 0.0, 0.0, 0.0, 0.0, 1.669771600346953E9, 0.0, 2022-11-29 19:26:40.346
47.0, 43.912035329733044, -195.4583913842216, -20.002854913007468, 253.37261214805767, 0.0, 0.03200000151991844, 1.0240000486373901, 0.0, 0.0, 0.0, 0.0, 0.0, 1.669771600346953E9, 0.0, 2022-11-29 19:26:40.346
48.0, 44.94050781754777, -199.0935741411522, -32.36322426656261, 262.112758344505, 0.0, 0.03200000151991844, 1.0240000486373901, 0.0, 0.0, 0.0, 0.0, 0.0, 1.669771600370943E9, 0.0, 2022-11-29 19:26:40.370
48.0, 50.8944285470061, -191.25848373398185, -34.566025340463966, 270.38541704649106, 0.0, 0.03200000151991844, 1.0240000486373901, 0.0, 0.0, 0.0, 0.0, 0.0, 1.669771600370943E9, 0.0, 2022-11-29 19:26:40.370
49.0, 41.002393164206296, -199.96871073078364, -46.8927355944179, 273.2165213129483, 0.0, 0.03200000151991844, 1.0240000486373901, 0.0, 0.0, 0.0, 0.0, 0.0, 1.66977160039496E9, 0.0, 2022-11-29 19:26:40.394
49.0, 35.48604072956368, -187.54102317802608, -38.13014999823645, 274.4843473979272, 0.0, 0.03200000151991844, 1.0240000486373901, 0.0, 0.0, 0.0, 0.0, 0.0, 1.66977160039496E9, 0.0, 2022-11-29 19:26:40.394
50.0, 35.456121529918164, -189.8261020509526, -32.28468636749312, 265.1869561080821, 0.0, 0.03200000151991844, 1.0240000486373901, 0.0, 0.0, 0.0, 0.0, 0.0, 1.669771600418953E9, 0.0, 2022-11-29 19:26:40.418
50.0, 38.85943048959598, -204.77074227388948, -33.47023465344682, 268.90815656399354, 0.0, 0.03200000151991844, 1.0240000486373901, 0.0, 0.0, 0.0, 0.0, 0.0, 1.669771600418953E9, 0.0, 2022-11-29 19:26:40.418
51.0, 45.535151910502464, -205.78799506183714, -29.464801800902933, 286.3697494571097, 0.0, 0.03200000151991844, 1.0240000486373901, 0.0, 0.0, 0.0, 0.0, 0.0, 1.66977160044296E9, 0.0, 2022-11-29 19:26:40.442
51.0, 35.96474792389199, -192.55622901860625, -28.604624811094254, 271.87015732889995, 0.0, 0.03200000151991844, 1.0240000486373901, 0.0, 0.0, 0.0, 0.0, 0.0, 1.66977160044296E9, 0.0, 2022-11-29 19:26:40.442
52.0, 40.13099647453055, -191.87930712662637, -36.12930352194235, 265.5946052032523, 0.0, 0.03200000151991844, 1.0240000486373901, 0.0, 0.0, 0.0, 0.0, 0.0, 1.669771600466937E9, 0.0, 2022-11-29 19:26:40.466
52.0, 49.551804462913424, -194.29154259804636, -47.77535198396072, 278.69547474803403, 0.0, 0.03200000151991844, 1.0240000486373901, 0.0, 0.0, 0.0, 0.0, 0.0, 1.669771600466937E9, 0.0, 2022-11-29 19:26:40.466
53.0, 42.677868344355375, -202.3136280030012, -38.8145516901277, 278.3775832518004, 0.0, 0.03200000151991844, 1.0240000486373901, 0.0, 0.0, 0.0, 0.0, 0.0, 1.669771600490971E9, 0.0, 2022-11-29 19:26:40.490
53.0, 53.1907271197997, -201.77882230933756, -29.1431704047136, 270.13110384950414, 0.0, 0.03200000151991844, 1.0240000486373901, 0.0, 0.0, 0.0, 0.0, 0.0, 1.669771600490971E9, 0.0, 2022-11-29 19:26:40.490
54.0, 46.88151589455083, -206.77158875018358, -47.15826849127188, 276.16356247803196, 0.0, 0.03200000151991844, 1.0240000486373901, 0.0, 0.0, 0.0, 0.0, 0.0, 1.669771600514946E9, 0.0, 2022-11-29 19:26:40.514
54.0, 45.27709881355986, -211.76061529107392, -30.085625193547457, 271.0062404391356, 0.0, 0.03200000151991844, 1.0240000486373901, 0.0, 0.0, 0.0, 0.0, 0.0, 1.669771600514946E9, 0.0, 2022-11-29 19:26:40.514
55.0, 48.61682947399095, -200.29408202692866, -39.020246187690645, 273.4521350101568, 0.0, 0.03200000151991844, 1.0240000486373901, 0.0, 0.0, 0.0, 0.0, 0.0, 1.66977160053895E9, 0.0, 2022-11-29 19:26:40.538
55.0, 32.639976863283664, -210.46287000644952, -22.32907268544659, 271.46624813368544, 0.0, 0.03200000151991844, 1.0240000486373901, 0.0, 0.0, 0.0, 0.0, 0.0, 1.66977160053895E9, 0.0, 2022-11-29 19:26:40.538
56.0, 36.54443241702393, -213.05836057569832, -18.843485926743597, 275.0827313908376, 0.0, 0.03200000151991844, 1.0240000486373901, 0.0, 0.0, 0.0, 0.0, 0.0, 1.669771600562954E9, 0.0, 2022-11-29 19:26:40.562
56.0, 32.78583296155557, -203.37201969046146, -31.25995377963409, 273.9607614041306, 0.0, 0.03200000151991844, 1.0240000486373901, 0.0, 0.0, 0.0, 0.0, 0.0, 1.669771600562954E9, 0.0, 2022-11-29 19:26:40.562
57.0, 29.879930695984513, -219.15439750347286, -35.4785609296523, 274.16271600173786, 0.0, 0.03200000151991844, 1.0240000486373901, 0.0, 0.0, 0.0, 0.0, 0.0, 1.669771600586949E9, 0.0, 2022-11-29 19:26:40.586
57.0, 53.149588220287114, -203.30844139121473, -32.9242092599161, 274.61150399642065, 0.0, 0.03200000151991844, 1.0240000486373901, 0.0, 0.0, 0.0, 0.0, 0.0, 1.669771600586949E9, 0.0, 2022-11-29 19:26:40.586
58.0, 40.8527971659787, -204.01528248284012, -26.248487839009613, 281.1600688188337, 0.0, 0.03200000151991844, 1.0240000486373901, 0.0, 0.0, 0.0, 0.0, 0.0, 1.669771600610956E9, 0.0, 2022-11-29 19:26:40.610
58.0, 41.36890335986391, -209.68123091571033, -30.4035166897811, 264.59979181503877, 0.0, 0.03200000151991844, 1.0240000486373901, 0.0, 0.0, 0.0, 0.0, 0.0, 1.669771600610956E9, 0.0, 2022-11-29 19:26:40.610
59.0, 48.747725972440094, -206.48735635355115, -31.858337772544473, 282.28203880554065, 0.0, 0.03200000151991844, 1.0240000486373901, 0.0, 0.0, 0.0, 0.0, 0.0, 1.669771600634987E9, 0.0, 2022-11-29 19:26:40.634
59.0, 44.88066941825673, -203.944224383682, -32.78583296155557, 275.0677717910148, 0.0, 0.03200000151991844, 1.0240000486373901, 0.0, 0.0, 0.0, 0.0, 0.0, 1.669771600634987E9, 0.0, 2022-11-29 19:26:40.634
60.0, 35.852550925221294, -207.1343590458855, -30.141723692882806, 273.38855671091005, 0.0, 0.03200000151991844, 1.0240000486373901, 0.0, 0.0, 0.0, 0.0, 0.0, 1.669771600658942E9, 0.0, 2022-11-29 19:26:40.658
60.0, 40.291812172625214, -219.28155410196632, -36.08068482251838, 264.67458981415257, 0.0, 0.03200000151991844, 1.0240000486373901, 0.0, 0.0, 0.0, 0.0, 0.0, 1.669771600658942E9, 0.0, 2022-11-29 19:26:40.658
61.0, 40.647102668415755, -221.71248907316476, -44.15886872680858, 276.7095878715627, 0.0, 0.03200000151991844, 1.0240000486373901, 0.0, 0.0, 0.0, 0.0, 0.0, 1.669771600682962E9, 0.0, 2022-11-29 19:26:40.682
61.0, 53.74423231324181, -214.18781036231667, -29.655536698643118, 282.27829890558496, 0.0, 0.03200000151991844, 1.0240000486373901, 0.0, 0.0, 0.0, 0.0, 0.0, 1.669771600682962E9, 0.0, 2022-11-29 19:26:40.682
62.0, 43.059338139835745, -219.4797687996179, -36.37239701906219, 273.4147360105999, 0.01600000075995922, 0.03200000151991844, 1.0240000486373901, 0.0, 0.0, 0.0, 0.0, 0.0, 1.66977160070694E9, 0.0, 2022-11-29 19:26:40.706
62.0, 37.060538610909134, -212.14582498650998, -41.3726432598196, 276.01396647980437, 0.01600000075995922, 0.03200000151991844, 1.0240000486373901, 0.0, 0.0, 0.0, 0.0, 0.0, 1.66977160070694E9, 0.0, 2022-11-29 19:26:40.706
63.0, 36.204101521056145, -212.08972648717463, -29.266587103251368, 278.1943281539716, 0.01600000075995922, 0.03200000151991844, 1.0240000486373901, 0.0, 0.0, 0.0, 0.0, 0.0, 1.669771600730936E9, 0.0, 2022-11-29 19:26:40.730
63.0, 32.172489368822426, -211.71573649160564, -33.58617155207321, 276.1598225780763, 0.01600000075995922, 0.03200000151991844, 1.0240000486373901, 0.0, 0.0, 0.0, 0.0, 0.0, 1.669771600730936E9, 0.0, 2022-11-29 19:26:40.730
64.0, 26.499061136040837, -217.96884921751916, -31.686302374582738, 282.68968790071085, 0.01600000075995922, 0.03200000151991844, 1.0240000486373901, 0.0, 0.0, 0.0, 0.0, 0.0, 1.669771600754956E9, 0.0, 2022-11-29 19:26:40.754
64.0, 39.001546687912196, -203.27104239165783, -26.69353593373671, 271.72804113058373, 0.01600000075995922, 0.03200000151991844, 1.0240000486373901, 0.0, 0.0, 0.0, 0.0, 0.0, 1.669771600754956E9, 0.0, 2022-11-29 19:26:40.754
65.0, 34.79041933780536, -208.9182913247496, -31.66012307489291, 266.64925699075684, 0.01600000075995922, 0.03200000151991844, 1.0240000486373901, 0.0, 0.0, 0.0, 0.0, 0.0, 1.669771600778928E9, 0.0, 2022-11-29 19:26:40.778
65.0, 39.57375138113275, -215.68377034459263, -27.669649822171777, 274.402069598902, 0.01600000075995922, 0.03200000151991844, 1.0240000486373901, 0.0, 0.0, 0.0, 0.0, 0.0, 1.669771600778928E9, 0.0, 2022-11-29 19:26:40.778
66.0, 45.826864107046276, -197.55273535940796, -38.04039239929989, 269.7047552545555, 0.01600000075995922, 0.03200000151991844, 1.0240000486373901, 0.0, 0.0, 0.0, 0.0, 0.0, 1.669771600802959E9, 0.0, 2022-11-29 19:26:40.802
66.0, 45.20978061435744, -216.60004583373666, -31.757360473740846, 275.93916848069057, 0.01600000075995922, 0.03200000151991844, 1.0240000486373901, 0.0, 0.0, 0.0, 0.0, 0.0, 1.669771600802959E9, 0.0, 2022-11-29 19:26:40.802
67.0, 33.49267405318096, -217.13111162744462, -32.92794915987179, 268.1489568729885, 0.01600000075995922, 0.03200000151991844, 1.0240000486373901, 0.0, 0.0, 0.0, 0.0, 0.0, 1.669771600826955E9, 0.0, 2022-11-29 19:26:40.826
67.0, 50.39328195294365, -200.29408202692866, -42.83120424253866, 262.09031894477084, 0.01600000075995922, 0.03200000151991844, 1.0240000486373901, 0.0, 0.0, 0.0, 0.0, 0.0, 1.669771600826955E9, 0.0, 2022-11-29 19:26:40.826
68.0, 53.871388911735266, -201.2103575160727, -54.15936120832339, 282.58123080199584, 0.01600000075995922, 0.03200000151991844, 1.0240000486373901, 0.0, 0.0, 0.0, 0.0, 0.0, 1.669771600850938E9, 0.0, 2022-11-29 19:26:40.850
68.0, 32.73347436217591, -208.84723322559148, -33.365517454687506, 267.1391838849522, 0.01600000075995922, 0.03200000151991844, 1.0240000486373901, 0.0, 0.0, 0.0, 0.0, 0.0, 1.669771600850938E9, 0.0, 2022-11-29 19:26:40.850
69.0, 38.78837239043787, -219.19179650302976, -28.33535201428458, 266.3014462948777, 0.01600000075995922, 0.03200000151991844, 1.0240000486373901, 0.0, 0.0, 0.0, 0.0, 0.0, 1.669771600874944E9, 0.0, 2022-11-29 19:26:40.874
69.0, 47.35648318892345, -214.36732556018978, -33.13364365743473, 276.4851938742213, 0.01600000075995922, 0.03200000151991844, 1.0240000486373901, 0.0, 0.0, 0.0, 0.0, 0.0, 1.669771600874944E9, 0.0, 2022-11-29 19:26:40.874
70.0, 34.34163134312257, -214.86099235434085, -31.742400873918086, 271.8851169287227, 0.01600000075995922, 0.03200000151991844, 1.0240000486373901, 0.0, 0.0, 0.0, 0.0, 0.0, 1.669771600898958E9, 0.0, 2022-11-29 19:26:40.898
70.0, 40.14595607435331, -220.35490538924932, -36.271419720258564, 272.0085336272605, 0.01600000075995922, 0.03200000151991844, 1.0240000486373901, 0.0, 0.0, 0.0, 0.0, 0.0, 1.669771600898958E9, 0.0, 2022-11-29 19:26:40.898
71.0, 48.11194297997281, -213.42861067131162, -33.23462095623836, 270.61729084374383, 0.01600000075995922, 0.03200000151991844, 1.0240000486373901, 0.0, 0.0, 0.0, 0.0, 0.0, 1.669771600922936E9, 0.0, 2022-11-29 19:26:40.922
71.0, 34.180815645027906, -220.83361258357763, -27.18720272788778, 258.46261598775163, 0.01600000075995922, 0.03200000151991844, 1.0240000486373901, 0.0, 0.0, 0.0, 0.0, 0.0, 1.669771600922936E9, 0.0, 2022-11-29 19:26:40.922
72.0, 39.087564386893064, -216.8020004313439, -22.605825282167643, 266.7277948898263, 0.01600000075995922, 0.03200000151991844, 1.0240000486373901, 0.0, 0.0, 0.0, 0.0, 0.0, 1.669771600946953E9, 0.0, 2022-11-29 19:26:40.946
72.0, 38.71357439132407, -227.1503036087379, -25.055459753144532, 266.9933277866803, 0.01600000075995922, 0.03200000151991844, 1.0240000486373901, 0.0, 0.0, 0.0, 0.0, 0.0, 1.669771600946953E9, 0.0, 2022-11-29 19:26:40.946
73.0, 30.620430887211114, -214.64781805686653, -33.358037654776126, 262.98041513422504, 0.01600000075995922, 0.03200000151991844, 1.0240000486373901, 0.0, 0.0, 0.0, 0.0, 0.0, 1.669771600970938E9, 0.0, 2022-11-29 19:26:40.970
73.0, 36.970781011972576, -204.15365878120065, -32.613797563593835, 263.8443320239894, 0.01600000075995922, 0.03200000151991844, 1.0240000486373901, 0.0, 0.0, 0.0, 0.0, 0.0, 1.669771600970938E9, 0.0, 2022-11-29 19:26:40.970
74.0, 29.19926890404895, -215.16392425075173, -16.64816465275362, 253.5820465455763, 0.01600000075995922, 0.03200000151991844, 1.0240000486373901, 0.0, 0.0, 0.0, 0.0, 0.0, 1.669771600994947E9, 0.0, 2022-11-29 19:26:40.994
74.0, 30.923362783621997, -206.67809125129133, -17.680377040524036, 259.52474757516757, 0.01600000075995922, 0.03200000151991844, 1.0240000486373901, 0.0, 0.0, 0.0, 0.0, 0.0, 1.669771600994947E9, 0.0, 2022-11-29 19:26:40.994
75.0, 37.28119270829484, -209.6550516160205, -23.20420927507803, 254.15425123879686, 0.01600000075995922, 0.03200000151991844, 1.0240000486373901, 0.0, 0.0, 0.0, 0.0, 0.0, 1.669771601018955E9, 0.0, 2022-11-29 19:26:41.018
75.0, 40.06741817528382, -213.2453555734828, -25.53042704751715, 247.81138091394678, 0.01600000075995922, 0.03200000151991844, 1.0240000486373901, 0.0, 0.0, 0.0, 0.0, 0.0, 1.669771601018955E9, 0.0, 2022-11-29 19:26:41.018
76.0, 39.12496338644996, -200.23050372768193, -30.639130386989564, 270.2545205480419, 0.01600000075995922, 0.03200000151991844, 1.0240000486373901, 0.0, 0.0, 0.0, 0.0, 0.0, 1.669771601042951E9, 0.0, 2022-11-29 19:26:41.042
76.0, 27.318099226336926, -207.803801137954, -34.27805304387584, 267.1878025843762, 0.01600000075995922, 0.03200000151991844, 1.0240000486373901, 0.0, 0.0, 0.0, 0.0, 0.0, 1.669771601042951E9, 0.0, 2022-11-29 19:26:41.042
77.0, 43.12291643908247, -223.24584805499762, -16.038560959976166, 254.068233539816, 0.01600000075995922, 0.03200000151991844, 1.0240000486373901, 0.0, 0.0, 0.0, 0.0, 0.0, 1.669771601066979E9, 0.0, 2022-11-29 19:26:41.066
77.0, 36.56313191680238, -208.63779882807285, -29.868710996117443, 255.56045362213627, 0.01600000075995922, 0.03200000151991844, 1.0240000486373901, 0.0, 0.0, 0.0, 0.0, 0.0, 1.669771601066979E9, 0.0, 2022-11-29 19:26:41.066
78.0, 38.04787219921127, -213.82504006661475, -32.93168905982748, 253.9859557407908, 0.01600000075995922, 0.03200000151991844, 1.0240000486373901, 0.0, 0.0, 0.0, 0.0, 0.0, 1.669771601090963E9, 0.0, 2022-11-29 19:26:41.090
78.0, 31.850857972633094, -203.40193889010698, -33.810565549414605, 262.2997533422895, 0.01600000075995922, 0.03200000151991844, 1.0240000486373901, 0.0, 0.0, 0.0, 0.0, 0.0, 1.669771601090963E9, 0.0, 2022-11-29 19:26:41.090
79.0, 39.12122348649427, -212.97982267662883, -32.636236963327974, 263.2870869305916, 0.01600000075995922, 0.03200000151991844, 1.0240000486373901, 0.0, 0.0, 0.0, 0.0, 0.0, 1.669771601114961E9, 0.0, 2022-11-29 19:26:41.114
79.0, 41.7428933554329, -209.2100035212934, -28.604624811094254, 261.4769753520377, 0.01600000075995922, 0.03200000151991844, 1.0240000486373901, 0.0, 0.0, 0.0, 0.0, 0.0, 1.669771601114961E9, 0.0, 2022-11-29 19:26:41.114
80.0, 37.071758310776204, -204.49772957712412, -19.299753721337765, 263.86303152376786, 0.01600000075995922, 0.03200000151991844, 1.0240000486373901, 0.0, 0.0, 0.0, 0.0, 0.0, 1.669771601138965E9, 0.0, 2022-11-29 19:26:41.138
80.0, 35.69547512708232, -215.26116164959967, -28.671943010296673, 260.12687146803364, 0.01600000075995922, 0.03200000151991844, 1.0240000486373901, 0.0, 0.0, 0.0, 0.0, 0.0, 1.669771601138965E9, 0.0, 2022-11-29 19:26:41.138
81.0, 45.120023015420884, -224.55855293944478, -18.925763725768775, 266.08827199740335, 0.01600000075995922, 0.03200000151991844, 1.0240000486373901, 0.0, 0.0, 0.0, 0.0, 0.0, 1.669771601162949E9, 0.0, 2022-11-29 19:26:41.162
81.0, 42.8910426418297, -213.82877996657044, -12.384678703267127, 258.45139628788456, 0.01600000075995922, 0.03200000151991844, 1.0240000486373901, 0.0, 0.0, 0.0, 0.0, 0.0, 1.669771601162949E9, 0.0, 2022-11-29 19:26:41.162
82.0, 33.34307805495337, -210.45165030658245, -29.042193105909973, 259.483608675655, 0.01600000075995922, 0.03200000151991844, 1.0240000486373901, 0.0, 0.0, 0.0, 0.0, 0.0, 1.669771601187014E9, 0.0, 2022-11-29 19:26:41.187
82.0, 35.51222002925351, -213.2902343729511, -17.732735639903694, 267.1130045852624, 0.01600000075995922, 0.03200000151991844, 1.0240000486373901, 0.0, 0.0, 0.0, 0.0, 0.0, 1.669771601187014E9, 0.0, 2022-11-29 19:26:41.187
83.0, 31.63768367515877, -215.51921474654227, -26.82069253223017, 267.5243935803883, 0.01600000075995922, 0.03200000151991844, 1.0240000486373901, 0.0, 0.0, 0.0, 0.0, 0.0, 1.669771601210952E9, 0.0, 2022-11-29 19:26:41.210
83.0, 31.5516659761779, -224.09106544498354, -19.53910731850192, 261.7275486490689, 0.01600000075995922, 0.03200000151991844, 1.0240000486373901, 0.0, 0.0, 0.0, 0.0, 0.0, 1.669771601210952E9, 0.0, 2022-11-29 19:26:41.210
84.0, 42.09070405131206, -211.67459759209305, -23.48096187179908, 256.34583261283115, 0.01600000075995922, 0.03200000151991844, 1.0240000486373901, 0.0, 0.0, 0.0, 0.0, 0.0, 1.66977160123494E9, 0.0, 2022-11-29 19:26:41.234
84.0, 50.37084255320951, -212.35151948407292, -26.988988030236214, 274.1589761017822, 0.01600000075995922, 0.03200000151991844, 1.0240000486373901, 0.0, 0.0, 0.0, 0.0, 0.0, 1.66977160123494E9, 0.0, 2022-11-29 19:26:41.234
85.0, 38.02917269943282, -216.23727553803474, -13.716083087492734, 258.9114039824344, 0.01600000075995922, 0.03200000151991844, 1.0240000486373901, 0.0, 0.0, 0.0, 0.0, 0.0, 1.669771601258942E9, 0.0, 2022-11-29 19:26:41.258
85.0, 43.58292413363233, -212.96860297676176, -24.35609846143052, 255.1041858275421, 0.01600000075995922, 0.03200000151991844, 1.0240000486373901, 0.0, 0.0, 0.0, 0.0, 0.0, 1.669771601258942E9, 0.0, 2022-11-29 19:26:41.258
86.0, 30.070665593724698, -216.15125783905387, -21.311819897498935, 250.11515928665176, 0.01600000075995922, 0.03200000151991844, 1.0240000486373901, 0.0, 0.0, 0.0, 0.0, 0.0, 1.669771601282949E9, 0.0, 2022-11-29 19:26:41.282
86.0, 44.15512882685289, -203.2112039923668, -39.72708727931604, 269.9141896520741, 0.01600000075995922, 0.03200000151991844, 1.0240000486373901, 0.0, 0.0, 0.0, 0.0, 0.0, 1.669771601282949E9, 0.0, 2022-11-29 19:26:41.282
87.0, 45.299538213294, -212.03736788779497, -22.39639088464901, 254.77881453139707, 0.01600000075995922, 0.03200000151991844, 1.0240000486373901, 0.0, 0.0, 0.0, 0.0, 0.0, 1.669771601306993E9, 0.0, 2022-11-29 19:26:41.306
87.0, 34.50244704121724, -209.50171571783721, -16.038560959976166, 254.33002653671429, 0.01600000075995922, 0.03200000151991844, 1.0240000486373901, 0.0, 0.0, 0.0, 0.0, 0.0, 1.669771601306993E9, 0.0, 2022-11-29 19:26:41.306
88.0, 33.29819925548509, -219.4722889997065, -28.664463210385293, 266.3762442939915, 0.01600000075995922, 0.03200000151991844, 1.0240000486373901, 0.0, 0.0, 0.0, 0.0, 0.0, 1.669771601330935E9, 0.0, 2022-11-29 19:26:41.330
88.0, 39.17732198582962, -223.84049214795232, -20.436683307867497, 253.89245824189857, 0.01600000075995922, 0.03200000151991844, 1.0240000486373901, 0.0, 0.0, 0.0, 0.0, 0.0, 1.669771601330935E9, 0.0, 2022-11-29 19:26:41.330
89.0, 50.06417075684294, -215.1414848510176, -20.130011511500925, 261.97438204614446, 0.01600000075995922, 0.03200000151991844, 1.0240000486373901, 0.0, 0.0, 0.0, 0.0, 0.0, 1.669771601354928E9, 0.0, 2022-11-29 19:26:41.354
89.0, 47.28916498972103, -206.58833365235478, -28.36901111388579, 265.64696380263194, 0.01600000075995922, 0.03200000151991844, 1.0240000486373901, 0.0, 0.0, 0.0, 0.0, 0.0, 1.669771601354928E9, 0.0, 2022-11-29 19:26:41.354
90.0, 26.255967638920993, -221.08792578056455, -12.30988070415333, 260.2203689669259, 0.01600000075995922, 0.03200000151991844, 1.0240000486373901, 0.0, 0.0, 0.0, 0.0, 0.0, 1.669771601378978E9, 0.0, 2022-11-29 19:26:41.378
90.0, 33.3318583550863, -208.67893772758543, -14.030234683770686, 255.11166562745348, 0.01600000075995922, 0.03200000151991844, 1.0240000486373901, 0.0, 0.0, 0.0, 0.0, 0.0, 1.669771601378978E9, 0.0, 2022-11-29 19:26:41.378
91.0, 35.66929582739249, -209.7635087147355, -23.17055017547682, 268.3583912705071, 0.01600000075995922, 0.01600000075995922, 1.0240000486373901, 0.0, 0.0, 0.0, 0.0, 0.0, 1.669771601402939E9, 0.0, 2022-11-29 19:26:41.402
91.0, 35.25416693231091, -209.84952641371638, -21.356698696967214, 275.8868098813109, 0.01600000075995922, 0.01600000075995922, 1.0240000486373901, 0.0, 0.0, 0.0, 0.0, 0.0, 1.669771601402939E9, 0.0, 2022-11-29 19:26:41.402
92.0, 43.410888735670596, -207.5794071406126, -22.72176218079403, 254.6217387332581, 0.01600000075995922, 0.01600000075995922, 1.0240000486373901, 0.0, 0.0, 0.0, 0.0, 0.0, 1.669771601426941E9, 0.0, 2022-11-29 19:26:41.426
92.0, 47.02363209286705, -219.15439750347286, -19.206256222445518, 256.82079990720376, 0.01600000075995922, 0.01600000075995922, 1.0240000486373901, 0.0, 0.0, 0.0, 0.0, 0.0, 1.669771601426941E9, 0.0, 2022-11-29 19:26:41.426
93.0, 55.976952586788684, -206.7678488502279, -12.6539515000768, 266.2939664949663, 0.01600000075995922, 0.01600000075995922, 1.0240000486373901, 0.0, 0.0, 0.0, 0.0, 0.0, 1.669771601450954E9, 0.0, 2022-11-29 19:26:41.450
93.0, 35.766533226240426, -216.93663682974875, -21.337999197188765, 258.0325274928473, 0.01600000075995922, 0.01600000075995922, 1.0240000486373901, 0.0, 0.0, 0.0, 0.0, 0.0, 1.669771601450954E9, 0.0, 2022-11-29 19:26:41.450
94.0, 44.06163132796064, -214.33740636054426, -16.143278158735484, 251.45030357083306, 0.01600000075995922, 0.01600000075995922, 1.0240000486373901, 0.0, 0.0, 0.0, 0.0, 0.0, 1.669771601474955E9, 0.0, 2022-11-29 19:26:41.474
94.0, 38.9267486887984, -205.78799506183714, -14.004055384080857, 264.1884028199129, 0.01600000075995922, 0.01600000075995922, 1.0240000486373901, 0.0, 0.0, 0.0, 0.0, 0.0, 1.669771601474955E9, 0.0, 2022-11-29 19:26:41.474
95.0, 35.815151925664395, -209.71489001531154, -20.051473612431437, 255.05930702807382, 0.01600000075995922, 0.01600000075995922, 1.0240000486373901, 0.0, 0.0, 0.0, 0.0, 0.0, 1.669771601499031E9, 0.0, 2022-11-29 19:26:41.499
95.0, 49.450827164109796, -210.7695418028161, -6.157745277043432, 254.81247363099828, 0.01600000075995922, 0.01600000075995922, 1.0240000486373901, 0.0, 0.0, 0.0, 0.0, 0.0, 1.669771601499031E9, 0.0, 2022-11-29 19:26:41.499
96.0, 41.23800686141476, -211.85037289001048, -23.667956869583577, 270.0450861505233, 0.01600000075995922, 0.01600000075995922, 1.0240000486373901, 0.0, 0.0, 0.0, 0.0, 0.0, 1.669771601522929E9, 0.0, 2022-11-29 19:26:41.522
96.0, 42.35623694816604, -203.2486029919237, -39.786925678607076, 264.1136048207991, 0.01600000075995922, 0.01600000075995922, 1.0240000486373901, 0.0, 0.0, 0.0, 0.0, 0.0, 1.669771601522929E9, 0.0, 2022-11-29 19:26:41.522
97.0, 49.918314658571035, -210.5862867049873, -21.726948792580515, 260.60557866236195, 0.01600000075995922, 0.01600000075995922, 1.0240000486373901, 0.0, 0.0, 0.0, 0.0, 0.0, 1.669771601546952E9, 0.0, 2022-11-29 19:26:41.546
97.0, 39.454074582550675, -212.92746407724917, -22.224355486687273, 258.3541588890366, 0.01600000075995922, 0.01600000075995922, 1.0240000486373901, 0.0, 0.0, 0.0, 0.0, 0.0, 1.669771601546952E9, 0.0, 2022-11-29 19:26:41.546
98.0, 37.883316601160914, -219.13195810373873, 0.17390534793958068, 263.3656248296611, 0.01600000075995922, 0.01600000075995922, 1.0240000486373901, 0.0, 0.0, 0.0, 0.0, 0.0, 1.669771601570951E9, 0.0, 2022-11-29 19:26:41.570
98.0, 31.334751778747886, -214.2850477611646, -19.5091881188564, 249.2811615965329, 0.01600000075995922, 0.01600000075995922, 1.0240000486373901, 0.0, 0.0, 0.0, 0.0, 0.0, 1.669771601570951E9, 0.0, 2022-11-29 19:26:41.570
99.0, 27.295659826602787, -216.656144333072, -17.702816440258175, 254.5843397337012, 0.01600000075995922, 0.01600000075995922, 1.0240000486373901, 0.0, 0.0, 0.0, 0.0, 0.0, 1.669771601594972E9, 0.0, 2022-11-29 19:26:41.594
99.0, 40.8153981664218, -217.138591427356, -12.934443996753544, 266.27900689514354, 0.01600000075995922, 0.01600000075995922, 1.0240000486373901, 0.0, 0.0, 0.0, 0.0, 0.0, 1.669771601594972E9, 0.0, 2022-11-29 19:26:41.594
100.0, 37.96559440018609, -215.18262375053018, -7.418091562110931, 265.9611153989099, 0.01600000075995922, 0.01600000075995922, 1.0240000486373901, 0.0, 0.0, 0.0, 0.0, 0.0, 1.669771601618942E9, 0.0, 2022-11-29 19:26:41.618
100.0, 39.786925678607076, -225.3327122302726, -12.070527106989175, 261.8808845472522, 0.01600000075995922, 0.01600000075995922, 1.0240000486373901, 0.0, 0.0, 0.0, 0.0, 0.0, 1.669771601618942E9, 0.0, 2022-11-29 19:26:41.618
0.0, 39.280169234611094, -212.99852217640728, -21.044417050667107, 267.5505728800781, 0.01600000075995922, 0.01600000075995922, 1.0240000486373901, 0.0, 0.0, 0.0, 0.0, 0.0, 1.669771601642969E9, 0.0, 2022-11-29 19:26:41.642
1.0, 57.25412842165679, -216.22979573812336, -27.275090376846492, 279.28637894103304, 0.01600000075995922, 0.01600000075995922, 1.0240000486373901, 0.0, 0.0, 0.0, 0.0, 0.0, 1.66977160166697E9, 0.0, 2022-11-29 19:26:41.666
1.0, 45.75393605791032, -208.96317012421787, -23.553889920935035, 259.109618680086, 0.01600000075995922, 0.01600000075995922, 1.0240000486373901, 0.0, 0.0, 0.0, 0.0, 0.0, 1.66977160166697E9, 0.0, 2022-11-29 19:26:41.666
2.0, 42.825594392605126, -208.47698312997818, -35.44677178002894, 254.56564023392275, 0.01600000075995922, 0.01600000075995922, 1.0240000486373901, 0.0, 0.0, 0.0, 0.0, 0.0, 1.669771601690935E9, 0.0, 2022-11-29 19:26:41.690
2.0, 36.048895672895014, -216.22979573812336, -5.980100029148161, 256.5103882108815, 0.01600000075995922, 0.01600000075995922, 1.0240000486373901, 0.0, 0.0, 0.0, 0.0, 0.0, 1.669771601690935E9, 0.0, 2022-11-29 19:26:41.690
3.0, 31.710611724294722, -207.81502083782107, -20.15432086121291, 255.34353942470625, 0.01600000075995922, 0.01600000075995922, 1.0240000486373901, 0.0, 0.0, 0.0, 0.0, 0.0, 1.669771601724919E9, 0.0, 2022-11-29 19:26:41.724
3.0, 49.5050557134673, -211.19589039776474, -29.74342434760183, 257.67723699705675, 0.01600000075995922, 0.01600000075995922, 1.0240000486373901, 0.0, 0.0, 0.0, 0.0, 0.0, 1.669771601724919E9, 0.0, 2022-11-29 19:26:41.724
4.0, 38.812681740149856, -222.8120196601376, 0.19821469765156507, 261.6190915503539, 0.01600000075995922, 0.01600000075995922, 1.0240000486373901, 0.0, 0.0, 0.0, 0.0, 0.0, 1.669771601748939E9, 0.0, 2022-11-29 19:26:41.748
4.0, 40.63401301857084, -208.25258913263679, -3.8371373545378447, 255.82598651899025, 0.01600000075995922, 0.01600000075995922, 1.0240000486373901, 0.0, 0.0, 0.0, 0.0, 0.0, 1.669771601748939E9, 0.0, 2022-11-29 19:26:41.748
5.0, 33.793735999614, -224.34163874201477, -14.383655229583383, 251.4727429705672, 0.01600000075995922, 0.01600000075995922, 1.0240000486373901, 0.0, 0.0, 0.0, 0.0, 0.0, 1.669771601772988E9, 0.0, 2022-11-29 19:26:41.772
5.0, 26.485971486195922, -221.04304698109627, -9.27869179006666, 271.7467406303622, 0.01600000075995922, 0.01600000075995922, 1.0240000486373901, 0.0, 0.0, 0.0, 0.0, 0.0, 1.669771601772988E9, 0.0, 2022-11-29 19:26:41.772
6.0, 28.58405536133796, -207.9459173362702, -22.009311239235103, 263.64237742638215, 0.01600000075995922, 0.01600000075995922, 1.0240000486373901, 0.0, 0.0, 0.0, 0.0, 0.0, 1.669771601796967E9, 0.0, 2022-11-29 19:26:41.796
6.0, 31.3852404281497, -220.26140789035708, -34.08544819615781, 272.8986298167147, 0.01600000075995922, 0.01600000075995922, 1.0240000486373901, 0.0, 0.0, 0.0, 0.0, 0.0, 1.669771601796967E9, 0.0, 2022-11-29 19:26:41.796
7.0, 26.51215078588575, -222.4716887641698, -12.192073855549097, 266.98584798676893, 0.01600000075995922, 0.01600000075995922, 1.0240000486373901, 0.0, 0.0, 0.0, 0.0, 0.0, 1.669771601820966E9, 0.0, 2022-11-29 19:26:41.820
7.0, 33.80121579952538, -211.50256219413131, -2.329957672394812, 264.9962212103419, 0.01600000075995922, 0.01600000075995922, 1.0240000486373901, 0.0, 0.0, 0.0, 0.0, 0.0, 1.669771601820966E9, 0.0, 2022-11-29 19:26:41.820
8.0, 30.2370911417529, -219.82757949549705, -21.908333940431476, 266.6604766906239, 0.01600000075995922, 0.01600000075995922, 1.0240000486373901, 0.0, 0.0, 0.0, 0.0, 0.0, 1.669771601844967E9, 0.0, 2022-11-29 19:26:41.844
8.0, 34.56041549053043, -217.33306622505188, -20.46099265757948, 262.08283914485946, 0.01600000075995922, 0.01600000075995922, 1.0240000486373901, 0.0, 0.0, 0.0, 0.0, 0.0, 1.669771601844967E9, 0.0, 2022-11-29 19:26:41.844
9.0, 33.87227389868349, -219.1805768031627, -14.92594072315842, 263.9864482223056, 0.01600000075995922, 0.01600000075995922, 1.0240000486373901, 0.0, 0.0, 0.0, 0.0, 0.0, 1.66977160186897E9, 0.0, 2022-11-29 19:26:41.868
9.0, 35.36449398100376, -219.92855679430068, -20.95465945173055, 261.00948785757646, 0.01600000075995922, 0.01600000075995922, 1.0240000486373901, 0.0, 0.0, 0.0, 0.0, 0.0, 1.66977160186897E9, 0.0, 2022-11-29 19:26:41.868
10.0, 36.13865327183157, -216.2522351378575, -26.91979988105595, 260.01093456940725, 0.01600000075995922, 0.01600000075995922, 1.008000047877431, 0.0, 0.0, 0.0, 0.0, 0.0, 1.669771601892962E9, 0.0, 2022-11-29 19:26:41.892
10.0, 28.363401263952255, -228.09649829752743, -16.47051940485835, 261.4844551519491, 0.01600000075995922, 0.01600000075995922, 1.008000047877431, 0.0, 0.0, 0.0, 0.0, 0.0, 1.669771601892962E9, 0.0, 2022-11-29 19:26:41.892
11.0, 29.79578294698149, -217.030134328641, -9.914474782533944, 268.8109191651456, 0.01600000075995922, 0.03200000151991844, 1.008000047877431, 0.0, 0.0, 0.0, 0.0, 0.0, 1.66977160191693E9, 0.0, 2022-11-29 19:26:41.916
11.0, 17.33817619457841, -229.9963674750179, -27.37980757560581, 259.26669447822496, 0.01600000075995922, 0.03200000151991844, 1.008000047877431, 0.0, 0.0, 0.0, 0.0, 0.0, 1.66977160191693E9, 0.0, 2022-11-29 19:26:41.916
12.0, 28.086648667231202, -213.6978834681213, -17.442893393337727, 243.55911466432735, 0.0, 0.03200000151991844, 1.008000047877431, 0.0, 0.0, 0.0, 0.0, 0.0, 1.669771601940956E9, 0.0, 2022-11-29 19:26:41.940
12.0, 34.93440548609942, -212.04484768770635, -11.055144269019365, 255.78858751943335, 0.0, 0.03200000151991844, 1.008000047877431, 0.0, 0.0, 0.0, 0.0, 0.0, 1.669771601940956E9, 0.0, 2022-11-29 19:26:41.940
13.0, 24.062516314908862, -226.98574801068753, -3.377129659987986, 263.83685222407803, 0.0, 0.03200000151991844, 1.008000047877431, 0.0, 0.0, 0.0, 0.0, 0.0, 1.669771601964979E9, 0.0, 2022-11-29 19:26:41.964
13.0, 24.036337015219033, -217.08249292802066, -7.315244313329458, 259.53222737507895, 0.0, 0.03200000151991844, 1.008000047877431, 0.0, 0.0, 0.0, 0.0, 0.0, 1.669771601964979E9, 0.0, 2022-11-29 19:26:41.964
14.0, 40.77238931693137, -206.70801045093685, -15.572943415492773, 278.79645204683766, 0.0, 0.03200000151991844, 1.008000047877431, 0.0, 0.0, 0.0, 0.0, 0.0, 1.669771601988959E9, 0.0, 2022-11-29 19:26:41.988
14.0, 26.10450169071555, -219.1431778036058, -17.001585198566318, 262.86447823559865, 0.0, 0.03200000151991844, 1.008000047877431, 0.0, 0.0, 0.0, 0.0, 0.0, 1.669771601988959E9, 0.0, 2022-11-29 19:26:41.988
15.0, 35.89555977471173, -220.01083459332585, -12.296791054308414, 255.87460521841422, 0.0, 0.03200000151991844, 1.008000047877431, 0.0, 0.0, 0.0, 0.0, 0.0, 1.669771602012965E9, 0.0, 2022-11-29 19:26:42.012
15.0, 35.28595608193427, -228.84073838870972, -1.8213312784209847, 260.12313156807795, 0.0, 0.03200000151991844, 1.008000047877431, 0.0, 0.0, 0.0, 0.0, 0.0, 1.669771602012965E9, 0.0, 2022-11-29 19:26:42.012
16.0, 27.73883797135204, -218.477475611493, -9.203893790952861, 260.97582875797525, 0.0, 0.03200000151991844, 1.008000047877431, 0.0, 0.0, 0.0, 0.0, 0.0, 1.669771602036936E9, 0.0, 2022-11-29 19:26:42.036
16.0, 31.04864943213761, -207.69908393919468, -20.453512857668102, 262.9130969350226, 0.0, 0.03200000151991844, 1.008000047877431, 0.0, 0.0, 0.0, 0.0, 0.0, 1.669771602036936E9, 0.0, 2022-11-29 19:26:42.036
17.0, 34.63895338959992, -210.89669840130955, -14.204140031710267, 259.8875178708695, 0.0, 0.03200000151991844, 1.008000047877431, 0.0, 0.0, 0.0, 0.0, 0.0, 1.669771602060968E9, 0.0, 2022-11-29 19:26:42.060
17.0, 43.9475643793121, -203.69739098660648, -5.056344740092754, 263.67603652598336, 0.0, 0.03200000151991844, 1.008000047877431, 0.0, 0.0, 0.0, 0.0, 0.0, 1.669771602060968E9, 0.0, 2022-11-29 19:26:42.060
18.0, 42.810634792782366, -212.23932248540223, -25.633274296298623, 256.1737972148694, 0.0, 0.03200000151991844, 1.008000047877431, 0.0, 0.0, 0.0, 0.0, 0.0, 1.669771602084961E9, 0.0, 2022-11-29 19:26:42.084
18.0, 41.636306206695735, -214.59545945748687, -11.391735265031457, 263.82563252421096, 0.0, 0.03200000151991844, 1.008000047877431, 0.0, 0.0, 0.0, 0.0, 0.0, 1.669771602084961E9, 0.0, 2022-11-29 19:26:42.084
19.0, 39.613020330667496, -215.70994964428246, -6.04367832839489, 268.0068406746723, 0.0, 0.03200000151991844, 1.008000047877431, 0.0, 0.0, 0.0, 0.0, 0.0, 1.669771602108943E9, 0.0, 2022-11-29 19:26:42.108
19.0, 33.980730997398496, -209.3932586191222, -12.674520949833095, 271.5148668331094, 0.0, 0.03200000151991844, 1.008000047877431, 0.0, 0.0, 0.0, 0.0, 0.0, 1.669771602108943E9, 0.0, 2022-11-29 19:26:42.108
20.0, 39.97205072641373, -217.40786422416568, -11.907841458916664, 263.20480913156644, 0.0, 0.03200000151991844, 1.008000047877431, 0.0, 0.0, 0.0, 0.0, 0.0, 1.669771602132945E9, 0.0, 2022-11-29 19:26:42.132
20.0, 48.495282725431025, -202.11915320530534, -14.301377430558205, 273.35863751126453, 0.0, 0.03200000151991844, 1.008000047877431, 0.0, 0.0, 0.0, 0.0, 0.0, 1.669771602132945E9, 0.0, 2022-11-29 19:26:42.132
21.0, 42.081354301422834, -207.89729863684624, -17.992658686824143, 254.9882489289157, 0.0, 0.03200000151991844, 1.008000047877431, 0.0, 0.0, 0.0, 0.0, 0.0, 1.669771602156997E9, 0.0, 2022-11-29 19:26:42.156
21.0, 25.098468602634966, -208.96317012421787, -5.744486331939697, 261.6714501497336, 0.0, 0.03200000151991844, 1.008000047877431, 0.0, 0.0, 0.0, 0.0, 0.0, 1.669771602156997E9, 0.0, 2022-11-29 19:26:42.156
22.0, 32.72412461228669, -215.34717934858054, -7.442400911822915, 266.49966099252924, 0.0, 0.03200000151991844, 1.008000047877431, 0.0, 0.0, 0.0, 0.0, 0.0, 1.669771602180974E9, 0.0, 2022-11-29 19:26:42.180
22.0, 35.53278947900981, -203.9517041835934, -9.080477092415094, 261.2525813546963, 0.0, 0.03200000151991844, 1.008000047877431, 0.0, 0.0, 0.0, 0.0, 0.0, 1.669771602180974E9, 0.0, 2022-11-29 19:26:42.180
23.0, 22.439399734139442, -209.3633394194767, -9.450727188028395, 258.518714487087, 0.0, 0.03200000151991844, 1.008000047877431, 0.0, 0.0, 0.0, 0.0, 0.0, 1.669771602204949E9, 0.0, 2022-11-29 19:26:42.204
23.0, 23.509011121466756, -209.7298496151343, -10.142608679831028, 261.2600611546077, 0.0, 0.03200000151991844, 1.008000047877431, 0.0, 0.0, 0.0, 0.0, 0.0, 1.669771602204949E9, 0.0, 2022-11-29 19:26:42.204
24.0, 42.58998069539666, -210.71718320343643, -2.01206617616117, 260.6691569616087, 0.0, 0.03200000151991844, 1.008000047877431, 0.0, 0.0, 0.0, 0.0, 0.0, 1.669771602228971E9, 0.0, 2022-11-29 19:26:42.228
24.0, 41.34459401015192, -220.31002658978105, -15.920754111371934, 250.18621738580987, 0.0, 0.03200000151991844, 1.008000047877431, 0.0, 0.0, 0.0, 0.0, 0.0, 1.669771602228971E9, 0.0, 2022-11-29 19:26:42.228
25.0, 43.244463187642395, -216.4728892352432, -29.38065405189991, 261.93698304658756, 0.0, 0.03200000151991844, 1.008000047877431, 0.0, 0.0, 0.0, 0.0, 0.0, 1.669771602252915E9, 0.0, 2022-11-29 19:26:42.252
25.0, 35.08400148432702, -215.31352024897933, -13.332743342034519, 261.4657556521706, 0.0, 0.03200000151991844, 1.008000047877431, 0.0, 0.0, 0.0, 0.0, 0.0, 1.669771602252915E9, 0.0, 2022-11-29 19:26:42.252
26.0, 34.88204688671976, -218.0997457159683, -4.147549050860107, 256.5552670103498, 0.0, 0.03200000151991844, 1.008000047877431, 0.0, 0.0, 0.0, 0.0, 0.0, 1.669771602276952E9, 0.0, 2022-11-29 19:26:42.276
26.0, 36.48272406775504, -225.9946745224297, -4.547718346118927, 256.71608270844445, 0.0, 0.03200000151991844, 1.008000047877431, 0.0, 0.0, 0.0, 0.0, 0.0, 1.669771602276952E9, 0.0, 2022-11-29 19:26:42.276
27.0, 42.066394701600075, -217.55746022239327, -12.981192746199667, 266.97088838694617, 0.0, 0.03200000151991844, 1.008000047877431, 0.0, 0.0, 0.0, 0.0, 0.0, 1.669771602300945E9, 0.0, 2022-11-29 19:26:42.300
27.0, 28.56535586155951, -229.61115777958184, -15.180253920145333, 266.1855093962513, 0.0, 0.03200000151991844, 1.008000047877431, 0.0, 0.0, 0.0, 0.0, 0.0, 1.669771602300945E9, 0.0, 2022-11-29 19:26:42.300
28.0, 42.13371290080249, -227.05680610984564, 4.704794144257903, 252.0262481640093, 0.0, 0.03200000151991844, 1.008000047877431, 0.0, 0.0, 0.0, 0.0, 0.0, 1.669771602324954E9, 0.0, 2022-11-29 19:26:42.324
28.0, 31.661993024870753, -218.59715241007507, -9.6713812854141, 260.5158210634254, 0.0, 0.03200000151991844, 1.008000047877431, 0.0, 0.0, 0.0, 0.0, 0.0, 1.669771602324954E9, 0.0, 2022-11-29 19:26:42.324
29.0, 40.12164672464132, -215.1414848510176, -16.219946107827127, 273.27635971223935, 0.0, 0.03200000151991844, 1.008000047877431, 0.0, 0.0, 0.0, 0.0, 0.0, 1.669771602348937E9, 0.0, 2022-11-29 19:26:42.348
29.0, 36.007756773382425, -216.27841443754733, -15.28497111890465, 271.6756825312041, 0.0, 0.03200000151991844, 1.008000047877431, 0.0, 0.0, 0.0, 0.0, 0.0, 1.669771602348937E9, 0.0, 2022-11-29 19:26:42.348
30.0, 16.08530970942229, -210.64986500423402, -6.0960369277745485, 265.7778603010811, 0.0, 0.03200000151991844, 1.008000047877431, 0.0, 0.0, 0.0, 0.0, 0.0, 1.669771602373032E9, 0.0, 2022-11-29 19:26:42.373
30.0, 25.01619080360979, -211.7680950909853, -6.503686022944748, 255.5828930218704, 0.0, 0.03200000151991844, 1.008000047877431, 0.0, 0.0, 0.0, 0.0, 0.0, 1.669771602373032E9, 0.0, 2022-11-29 19:26:42.373
31.0, 29.459191950969398, -220.75881458446383, -7.318984213285148, 264.1884028199129, 0.0, 0.01600000075995922, 1.008000047877431, 0.0, 0.0, 0.0, 0.0, 0.0, 1.669771602396943E9, 0.0, 2022-11-29 19:26:42.396
31.0, 33.240230806171894, -226.73143481370062, -13.329003442078829, 263.48904152819887, 0.0, 0.01600000075995922, 1.008000047877431, 0.0, 0.0, 0.0, 0.0, 0.0, 1.669771602396943E9, 0.0, 2022-11-29 19:26:42.396
32.0, 29.930419345386326, -220.92711008246988, -10.322123877704144, 261.90332394698635, 0.0, 0.01600000075995922, 1.008000047877431, 0.0, 0.0, 0.0, 0.0, 0.0, 1.669771602420959E9, 0.0, 2022-11-29 19:26:42.420
32.0, 21.418407046236098, -214.24016896169633, -1.5071796821430326, 259.57336627459154, 0.0, 0.01600000075995922, 1.008000047877431, 0.0, 0.0, 0.0, 0.0, 0.0, 1.669771602420959E9, 0.0, 2022-11-29 19:26:42.420
33.0, 33.40478640422225, -227.27372030727565, 2.703947667963803, 255.3958980240859, 0.0, 0.01600000075995922, 1.008000047877431, 0.0, 0.0, 0.0, 0.0, 0.0, 1.669771602444944E9, 0.0, 2022-11-29 19:26:42.444
33.0, 43.39405918586999, -213.97463606484234, 8.310057701542974, 256.1812770147808, 0.0, 0.01600000075995922, 1.008000047877431, 0.0, 0.0, 0.0, 0.0, 0.0, 1.669771602444944E9, 0.0, 2022-11-29 19:26:42.444
34.0, 32.26785681769252, -230.63963026739657, -3.9717737529426813, 266.731534789782, 0.0, 0.01600000075995922, 1.008000047877431, 0.0, 0.0, 0.0, 0.0, 0.0, 1.669771602468958E9, 0.0, 2022-11-29 19:26:42.468
34.0, 31.920046121813357, -205.75807586219162, -11.021485169418156, 256.37575181247666, 0.0, 0.01600000075995922, 1.008000047877431, 0.0, 0.0, 0.0, 0.0, 0.0, 1.669771602468958E9, 0.0, 2022-11-29 19:26:42.468
35.0, 24.98253170400858, -207.89355873689055, 2.8423239663243294, 252.81536705465987, 0.0, 0.01600000075995922, 1.008000047877431, 0.0, 0.0, 0.0, 0.0, 0.0, 1.669771602492952E9, 0.0, 2022-11-29 19:26:42.492
35.0, 33.06819540821016, -215.38457834813744, 8.616729497909546, 257.288287401665, 0.0, 0.01600000075995922, 1.008000047877431, 0.0, 0.0, 0.0, 0.0, 0.0, 1.669771602492952E9, 0.0, 2022-11-29 19:26:42.492
36.0, 41.194998011924326, -213.05088077578694, -0.5909041929990053, 252.84902615426108, 0.0, 0.01600000075995922, 1.008000047877431, 0.0, 0.0, 0.0, 0.0, 0.0, 1.669771602516964E9, 0.0, 2022-11-29 19:26:42.516
36.0, 44.98725656699389, -216.63370493333787, -0.523585993796587, 263.1711500319652, 0.0, 0.01600000075995922, 1.008000047877431, 0.0, 0.0, 0.0, 0.0, 0.0, 1.669771602516964E9, 0.0, 2022-11-29 19:26:42.516
37.0, 26.272797188721597, -218.11844521574676, -8.687787597067654, 252.70317005598918, 0.0, 0.01600000075995922, 1.008000047877431, 0.0, 0.0, 0.0, 0.0, 0.0, 1.669771602540966E9, 0.0, 2022-11-29 19:26:42.540
37.0, 34.7212311886251, -216.52898773457855, -7.206787214614451, 258.7692877841182, 0.0, 0.01600000075995922, 1.008000047877431, 0.0, 0.0, 0.0, 0.0, 0.0, 1.669771602540966E9, 0.0, 2022-11-29 19:26:42.540
38.0, 33.255190405994654, -229.2970061833039, 8.972019993700087, 254.05701383994892, 0.0, 0.01600000075995922, 1.008000047877431, 0.0, 0.0, 0.0, 0.0, 0.0, 1.66977160256494E9, 0.0, 2022-11-29 19:26:42.564
38.0, 29.00292415637523, -230.69198886677623, 23.553889920935035, 244.96531704766676, 0.0, 0.01600000075995922, 1.008000047877431, 0.0, 0.0, 0.0, 0.0, 0.0, 1.66977160256494E9, 0.0, 2022-11-29 19:26:42.564
39.0, 12.603462850674987, -229.5887183798477, 17.831842988729477, 246.01622893521562, 0.0, 0.01600000075995922, 1.008000047877431, 0.0, 0.0, 0.0, 0.0, 0.0, 1.669771602588967E9, 0.0, 2022-11-29 19:26:42.588
39.0, 15.917014211416245, -222.93169645871967, 33.86105419881642, 245.94143093610182, 0.0, 0.01600000075995922, 1.008000047877431, 0.0, 0.0, 0.0, 0.0, 0.0, 1.669771602588967E9, 0.0, 2022-11-29 19:26:42.588
40.0, 13.078430145047605, -224.61465143878013, 52.115505882538855, 247.36633281921968, 0.0, 0.01600000075995922, 1.0240000486373901, 0.0, 0.0, 0.0, 0.0, 0.0, 1.669771602612952E9, 0.0, 2022-11-29 19:26:42.612
40.0, -2.9507810650393367, -220.9944282816723, 60.82573287934065, 228.3152824449353, 0.0, 0.01600000075995922, 1.0240000486373901, 0.0, 0.0, 0.0, 0.0, 0.0, 1.669771602612952E9, 0.0, 2022-11-29 19:26:42.612
41.0, 10.344563277438283, -234.06537862680852, 72.6625162390992, 227.91885304963216, 0.0, 0.01600000075995922, 1.0240000486373901, 0.0, 0.0, 0.0, 0.0, 0.0, 1.669771602636941E9, 0.0, 2022-11-29 19:26:42.636
41.0, 8.373636000789702, -219.85375879518688, 60.30588678549975, 215.9736125911586, 0.0, 0.01600000075995922, 1.0240000486373901, 0.0, 0.0, 0.0, 0.0, 0.0, 1.669771602636941E9, 0.0, 2022-11-29 19:26:42.636
42.0, 3.066717963665724, -230.2544205719605, 91.66868781391531, 208.13104238407686, 0.0, 0.01600000075995922, 1.0240000486373901, 0.0, 0.0, 0.0, 0.0, 0.0, 1.669771602660938E9, 0.0, 2022-11-29 19:26:42.660
42.0, 8.272658701986074, -230.19458217266947, 82.6330895209685, 214.33553641056642, 0.0, 0.01600000075995922, 1.0240000486373901, 0.0, 0.0, 0.0, 0.0, 0.0, 1.669771602660938E9, 0.0, 2022-11-29 19:26:42.660
43.0, -3.8408772544935346, -205.92637136019766, 84.24498640187085, 204.48090002732351, 0.0, 0.01600000075995922, 1.0240000486373901, 0.0, 0.0, 0.0, 0.0, 0.0, 1.66977160268493E9, 0.0, 2022-11-29 19:26:42.684
43.0, -0.5011465940624475, -212.48615588247776, 85.7820852836594, 188.20111552020535, 0.0, 0.01600000075995922, 1.0240000486373901, 0.0, 0.0, 0.0, 0.0, 0.0, 1.66977160268493E9, 0.0, 2022-11-29 19:26:42.684
44.0, 6.627102721482515, -214.75253525562584, 88.34391675330698, 191.15189658524469, 0.0, 0.01600000075995922, 1.0240000486373901, 0.0, 0.0, 0.0, 0.0, 0.0, 1.669771602708971E9, 0.0, 2022-11-29 19:26:42.708
44.0, -11.440353964455426, -208.71633672714233, 92.40170820523053, 195.1535895378329, 0.0, 0.01600000075995922, 1.0240000486373901, 0.0, 0.0, 0.0, 0.0, 0.0, 1.669771602708971E9, 0.0, 2022-11-29 19:26:42.708
45.0, 4.43178144749254, -228.3358518946916, 90.0792303327471, 199.82472458248958, 0.0, 0.01600000075995922, 1.0240000486373901, 0.0, 0.0, 0.0, 0.0, 0.0, 1.669771602732968E9, 0.0, 2022-11-29 19:26:42.732
45.0, 11.215959967114031, -222.57640596292913, 74.2594535201788, 204.47342022741213, 0.0, 0.01600000075995922, 1.0240000486373901, 0.0, 0.0, 0.0, 0.0, 0.0, 1.669771602732968E9, 0.0, 2022-11-29 19:26:42.732
46.0, 4.977806841023266, -193.8277950035408, 71.03939965832978, 194.42804894642904, 0.0, 0.01600000075995922, 1.0240000486373901, 0.0, 0.0, 0.0, 0.0, 0.0, 1.669771602756964E9, 0.0, 2022-11-29 19:26:42.756
46.0, 3.092897263355553, -186.0488030957058, 65.66890332195908, 208.91642137477174, 0.0, 0.01600000075995922, 1.0240000486373901, 0.0, 0.0, 0.0, 0.0, 0.0, 1.669771602756964E9, 0.0, 2022-11-29 19:26:42.756
47.0, -7.513459010981023, -199.22821053955704, 59.67758359294385, 196.7019081194885, 0.0, 0.01600000075995922, 1.0240000486373901, 0.0, 0.0, 0.0, 0.0, 0.0, 1.669771602780942E9, 0.0, 2022-11-29 19:26:42.780
47.0, -8.42599460016936, -210.86303930170834, 87.37154276482761, 202.15842215484008, 0.0, 0.01600000075995922, 1.0240000486373901, 0.0, 0.0, 0.0, 0.0, 0.0, 1.669771602780942E9, 0.0, 2022-11-29 19:26:42.780
48.0, 1.2192073855549097, -230.6620696671307, 77.38974978309125, 218.87577495677397, 0.0, 0.01600000075995922, 1.0240000486373901, 0.0, 0.0, 0.0, 0.0, 0.0, 1.669771602804972E9, 0.0, 2022-11-29 19:26:42.804
48.0, 3.3098114607855678, -213.31267377268523, 69.78653317317367, 206.61638290202245, 0.0, 0.01600000075995922, 1.0240000486373901, 0.0, 0.0, 0.0, 0.0, 0.0, 1.669771602804972E9, 0.0, 2022-11-29 19:26:42.804
49.0, -4.592597145587206, -202.3585068024695, 82.31519802473485, 196.68320861971006, 0.0, 0.01600000075995922, 1.0240000486373901, 0.0, 0.0, 0.0, 0.0, 0.0, 1.669771602828965E9, 0.0, 2022-11-29 19:26:42.828
49.0, 0.22439399734139442, -212.13086538668722, 88.28407835401595, 214.4926122087054, 0.0, 0.01600000075995922, 1.0240000486373901, 0.0, 0.0, 0.0, 0.0, 0.0, 1.669771602828965E9, 0.0, 2022-11-29 19:26:42.828
50.0, -9.854636383242905, -220.33994578942657, 67.41169670131058, 206.2311732065864, 0.0, 0.01600000075995922, 1.008000047877431, 0.0, 0.0, 0.0, 0.0, 0.0, 1.669771602852917E9, 0.0, 2022-11-29 19:26:42.852
50.0, -0.8975759893655777, -216.19613663852215, 66.63379751052707, 214.42903390945867, 0.0, 0.01600000075995922, 1.008000047877431, 0.0, 0.0, 0.0, 0.0, 0.0, 1.669771602852917E9, 0.0, 2022-11-29 19:26:42.852
51.0, 15.071796821430326, -229.00903388671577, 64.5132742356509, 230.66393961710855, 0.0, 0.01600000075995922, 1.008000047877431, 0.0, 0.0, 0.0, 0.0, 0.0, 1.669771602876966E9, 0.0, 2022-11-29 19:26:42.876
51.0, 8.100623304024339, -215.68003044463694, 57.11949202325195, 220.31563643971458, 0.0, 0.01600000075995922, 1.008000047877431, 0.0, 0.0, 0.0, 0.0, 0.0, 1.669771602876966E9, 0.0, 2022-11-29 19:26:42.876
52.0, -3.825917654670775, -213.93723706528544, 63.63065784610808, 206.13767570769414, 0.0, 0.01600000075995922, 1.008000047877431, 0.0, 0.0, 0.0, 0.0, 0.0, 1.669771602900981E9, 0.0, 2022-11-29 19:26:42.900
52.0, 19.451219669543207, -218.29796041361988, 62.77422075625509, 209.6382220662199, 0.0, 0.01600000075995922, 1.008000047877431, 0.0, 0.0, 0.0, 0.0, 0.0, 1.669771602900981E9, 0.0, 2022-11-29 19:26:42.900
53.0, 12.925094246864319, -221.6563905738294, 70.53451316431165, 214.83294310467318, 0.0, 0.01600000075995922, 1.008000047877431, 0.0, 0.0, 0.0, 0.0, 0.0, 1.669771602924953E9, 0.0, 2022-11-29 19:26:42.924
53.0, 4.2073874501511455, -220.97198888193816, 52.930804072879255, 211.32117704628035, 0.0, 0.01600000075995922, 1.008000047877431, 0.0, 0.0, 0.0, 0.0, 0.0, 1.669771602924953E9, 0.0, 2022-11-29 19:26:42.924
54.0, 13.336483241990209, -217.8416926190257, 50.41759130265564, 220.4540127380751, 0.0, 0.01600000075995922, 1.008000047877431, 0.0, 0.0, 0.0, 0.0, 0.0, 1.669771602948955E9, 0.0, 2022-11-29 19:26:42.948
54.0, 16.51165830437094, -237.34527088794857, 59.47936889529228, 221.89013432106003, 0.0, 0.01600000075995922, 1.008000047877431, 0.0, 0.0, 0.0, 0.0, 0.0, 1.669771602948955E9, 0.0, 2022-11-29 19:26:42.948
55.0, 4.162508650682867, -246.6688414774835, 51.90233158506453, 226.7894032630138, 0.0, 0.01600000075995922, 1.008000047877431, 0.0, 0.0, 0.0, 0.0, 0.0, 1.669771602972973E9, 0.0, 2022-11-29 19:26:42.972
55.0, 25.910026893019676, -247.13632897194475, 40.74247011728585, 240.30914160283282, 0.0, 0.01600000075995922, 1.008000047877431, 0.0, 0.0, 0.0, 0.0, 0.0, 1.669771602972973E9, 0.0, 2022-11-29 19:26:42.972
56.0, 37.52241625543684, -232.13933014962822, 41.92053860332817, 245.04011504678056, 0.0, 0.01600000075995922, 1.008000047877431, 0.0, 0.0, 0.0, 0.0, 0.0, 1.669771602996978E9, 0.0, 2022-11-29 19:26:42.996
56.0, 10.512858775444329, -242.10242363158613, 50.35027310345322, 222.2005460173823, 0.0, 0.01600000075995922, 1.008000047877431, 0.0, 0.0, 0.0, 0.0, 0.0, 1.669771602996978E9, 0.0, 2022-11-29 19:26:42.996
57.0, 16.14514810871333, -244.94474759791046, 49.01512881927192, 223.80122319841757, 0.0, 0.01600000075995922, 1.008000047877431, 0.0, 0.0, 0.0, 0.0, 0.0, 1.669771603020973E9, 0.0, 2022-11-29 19:26:43.020
57.0, 17.061423597857356, -230.9949207631871, 54.30708725657314, 228.00113084865734, 0.0, 0.01600000075995922, 1.008000047877431, 0.0, 0.0, 0.0, 0.0, 0.0, 1.669771603020973E9, 0.0, 2022-11-29 19:26:43.020
58.0, 12.749318948946893, -240.79345864709467, 47.320954139344394, 234.4599380721338, 0.0, 0.01600000075995922, 1.008000047877431, 0.0, 0.0, 0.0, 0.0, 0.0, 1.669771603044958E9, 0.0, 2022-11-29 19:26:43.044
58.0, 21.036937250755727, -239.86222355812788, 41.98037700261921, 231.83826820319518, 0.0, 0.01600000075995922, 1.008000047877431, 0.0, 0.0, 0.0, 0.0, 0.0, 1.669771603044958E9, 0.0, 2022-11-29 19:26:43.044
59.0, 26.53833008557558, -225.68426282610744, 34.53797609079629, 250.66866448009387, 0.0, 0.01600000075995922, 1.008000047877431, 0.0, 0.0, 0.0, 0.0, 0.0, 1.669771603068932E9, 0.0, 2022-11-29 19:26:43.068
59.0, 23.049003426916897, -242.30811812914908, 51.79387448634952, 243.60773336375132, 0.0, 0.01600000075995922, 1.008000047877431, 0.0, 0.0, 0.0, 0.0, 0.0, 1.669771603068932E9, 0.0, 2022-11-29 19:26:43.068
60.0, 27.132974178530276, -247.16250827163458, 39.72521732933819, 240.7579295975156, 0.0, 0.01600000075995922, 1.008000047877431, 0.0, 0.0, 0.0, 0.0, 0.0, 1.669771603092972E9, 0.0, 2022-11-29 19:26:43.092
60.0, 29.881800645962358, -248.13488226011395, 42.64607919473201, 244.21733705652878, 0.0, 0.01600000075995922, 1.008000047877431, 0.0, 0.0, 0.0, 0.0, 0.0, 1.669771603092972E9, 0.0, 2022-11-29 19:26:43.092
61.0, 33.81243549939245, -236.42151559889317, 32.30899571720511, 246.58843362843618, 0.0, 0.03200000151991844, 1.008000047877431, 0.0, 0.0, 0.0, 0.0, 0.0, 1.669771603116937E9, 0.0, 2022-11-29 19:26:43.116
61.0, 34.855867587029934, -237.7417002832517, 30.14359364286065, 237.93430513096973, 0.0, 0.03200000151991844, 1.008000047877431, 0.0, 0.0, 0.0, 0.0, 0.0, 1.669771603116937E9, 0.0, 2022-11-29 19:26:43.116
62.0, 38.77902264054865, -251.58307001926005, 26.729064983315766, 243.0953670698218, 0.01600000075995922, 0.03200000151991844, 1.008000047877431, 0.0, 0.0, 0.0, 0.0, 0.0, 1.669771603140987E9, 0.0, 2022-11-29 19:26:43.140
62.0, 43.18836468830705, -234.7460404187441, 18.10485568549484, 266.42486299341545, 0.01600000075995922, 0.03200000151991844, 1.008000047877431, 0.0, 0.0, 0.0, 0.0, 0.0, 1.669771603140987E9, 0.0, 2022-11-29 19:26:43.140
63.0, 35.671165777370334, -232.21038824878633, 4.252266249619424, 249.00814889976755, 0.01600000075995922, 0.03200000151991844, 1.008000047877431, 0.0, 0.0, 0.0, 0.0, 0.0, 1.669771603164955E9, 0.0, 2022-11-29 19:26:43.164
63.0, 26.744024583138525, -235.99142710398883, 23.460392422042787, 249.72246979130432, 0.01600000075995922, 0.03200000151991844, 1.008000047877431, 0.0, 0.0, 0.0, 0.0, 0.0, 1.669771603164955E9, 0.0, 2022-11-29 19:26:43.164
64.0, 34.852127687074244, -233.927002328448, 15.124155420809984, 259.8052400718443, 0.01600000075995922, 0.03200000151991844, 1.008000047877431, 0.0, 0.0, 0.0, 0.0, 0.0, 1.669771603188962E9, 0.0, 2022-11-29 19:26:43.188
64.0, 42.9452711911872, -238.03341247979552, 13.904948035255075, 252.18332396214828, 0.01600000075995922, 0.03200000151991844, 1.008000047877431, 0.0, 0.0, 0.0, 0.0, 0.0, 1.669771603188962E9, 0.0, 2022-11-29 19:26:43.188
65.0, 51.41240469086915, -228.8108191890642, -7.109549815766513, 265.12711770879105, 0.01600000075995922, 0.03200000151991844, 1.008000047877431, 0.0, 0.0, 0.0, 0.0, 0.0, 1.669771603212943E9, 0.0, 2022-11-29 19:26:43.212
65.0, 49.40781831461936, -234.57026512082666, -2.449634470976889, 270.26948014786467, 0.01600000075995922, 0.03200000151991844, 1.008000047877431, 0.0, 0.0, 0.0, 0.0, 0.0, 1.669771603212943E9, 0.0, 2022-11-29 19:26:43.212
66.0, 45.93345125578344, -241.4442012393847, -11.215959967114031, 268.65384336700663, 0.01600000075995922, 0.03200000151991844, 1.008000047877431, 0.0, 0.0, 0.0, 0.0, 0.0, 1.669771603236969E9, 0.0, 2022-11-29 19:26:43.236
66.0, 48.469103425741196, -238.58691767323762, -12.214513255283237, 262.8195994361304, 0.01600000075995922, 0.03200000151991844, 1.008000047877431, 0.0, 0.0, 0.0, 0.0, 0.0, 1.669771603236969E9, 0.0, 2022-11-29 19:26:43.236
67.0, 58.40227770805359, -233.97936092782766, -30.58490183763206, 270.79680604161695, 0.01600000075995922, 0.03200000151991844, 1.008000047877431, 0.0, 0.0, 0.0, 0.0, 0.0, 1.669771603260923E9, 0.0, 2022-11-29 19:26:43.260
67.0, 58.551873706281185, -227.4420158052817, -24.429026510566473, 268.6575832669623, 0.01600000075995922, 0.03200000151991844, 1.008000047877431, 0.0, 0.0, 0.0, 0.0, 0.0, 1.669771603260923E9, 0.0, 2022-11-29 19:26:43.260
68.0, 42.3917659977451, -224.68570953793824, -25.39392069913447, 278.24294685339555, 0.01600000075995922, 0.03200000151991844, 1.008000047877431, 0.0, 0.0, 0.0, 0.0, 0.0, 1.669771603284929E9, 0.0, 2022-11-29 19:26:43.284
68.0, 52.29128118045628, -219.285294001922, -44.64318577107042, 264.1098649208434, 0.01600000075995922, 0.03200000151991844, 1.008000047877431, 0.0, 0.0, 0.0, 0.0, 0.0, 1.669771603284929E9, 0.0, 2022-11-29 19:26:43.284
69.0, 63.14447085186839, -219.41993040032685, -18.45640628132969, 265.175736408215, 0.01600000075995922, 0.03200000151991844, 1.008000047877431, 0.0, 0.0, 0.0, 0.0, 0.0, 1.669771603308945E9, 0.0, 2022-11-29 19:26:43.308
69.0, 46.438337749801576, -221.15150407981128, -29.260977253317833, 257.86049209488556, 0.01600000075995922, 0.03200000151991844, 1.008000047877431, 0.0, 0.0, 0.0, 0.0, 0.0, 1.669771603308945E9, 0.0, 2022-11-29 19:26:43.308
70.0, 47.59022693615407, -233.3697572350502, -22.14020773768425, 259.8164597717114, 0.01600000075995922, 0.03200000151991844, 1.008000047877431, 0.0, 0.0, 0.0, 0.0, 0.0, 1.66977160333294E9, 0.0, 2022-11-29 19:26:43.332
70.0, 59.11659859959036, -226.42850291728973, -40.862146915867925, 269.1101111616008, 0.01600000075995922, 0.03200000151991844, 1.008000047877431, 0.0, 0.0, 0.0, 0.0, 0.0, 1.66977160333294E9, 0.0, 2022-11-29 19:26:43.332
71.0, 49.47887641377747, -232.32258524745703, -22.847048829309642, 256.52534781070426, 0.01600000075995922, 0.01600000075995922, 1.008000047877431, 0.0, 0.0, 0.0, 0.0, 0.0, 1.669771603356983E9, 0.0, 2022-11-29 19:26:43.356
71.0, 47.36957283876836, -232.76015354227275, -24.11487491428852, 259.060999980662, 0.01600000075995922, 0.01600000075995922, 1.008000047877431, 0.0, 0.0, 0.0, 0.0, 0.0, 1.669771603356983E9, 0.0, 2022-11-29 19:26:43.356
72.0, 56.07605993561447, -226.53696001600474, -34.754890288226306, 275.19866828946397, 0.0, 0.01600000075995922, 1.008000047877431, 0.0, 0.0, 0.0, 0.0, 0.0, 1.669771603380946E9, 0.0, 2022-11-29 19:26:43.380
72.0, 50.29791450407356, -241.56761793792248, -31.665732924826443, 268.75856056576595, 0.0, 0.01600000075995922, 1.008000047877431, 0.0, 0.0, 0.0, 0.0, 0.0, 1.669771603380946E9, 0.0, 2022-11-29 19:26:43.380
73.0, 68.00260089430958, -233.6689492315054, -54.494082254357636, 273.53441280918196, 0.0, 0.01600000075995922, 1.008000047877431, 0.0, 0.0, 0.0, 0.0, 0.0, 1.669771603404956E9, 0.0, 2022-11-29 19:26:43.404
73.0, 74.16969592124224, -223.518860751763, -65.02190062962472, 282.4129353039898, 0.0, 0.01600000075995922, 1.008000047877431, 0.0, 0.0, 0.0, 0.0, 0.0, 1.669771603404956E9, 0.0, 2022-11-29 19:26:43.404
74.0, 34.22382449451834, -220.40726398862898, -35.9441784741357, 270.5499726445414, 0.0, 0.01600000075995922, 1.008000047877431, 0.0, 0.0, 0.0, 0.0, 0.0, 1.669771603428967E9, 0.0, 2022-11-29 19:26:43.428
74.0, 39.87855322752148, -222.67364336177707, -31.983624421060085, 277.9587144567631, 0.0, 0.01600000075995922, 1.008000047877431, 0.0, 0.0, 0.0, 0.0, 0.0, 1.669771603428967E9, 0.0, 2022-11-29 19:26:43.428
75.0, 36.7220776649192, -221.68630977347493, -21.627841443754733, 269.71971485437825, 0.0, 0.01600000075995922, 1.008000047877431, 0.0, 0.0, 0.0, 0.0, 0.0, 1.669771603452964E9, 0.0, 2022-11-29 19:26:43.452
75.0, 59.13529809936881, -223.94146944675595, -24.817976105958223, 282.28203880554065, 0.0, 0.01600000075995922, 1.008000047877431, 0.0, 0.0, 0.0, 0.0, 0.0, 1.669771603452964E9, 0.0, 2022-11-29 19:26:43.452
76.0, 53.42447086703032, -221.34597887750715, -53.41699106711894, 277.1957748658024, 0.0, 0.01600000075995922, 1.008000047877431, 0.0, 0.0, 0.0, 0.0, 0.0, 1.66977160347694E9, 0.0, 2022-11-29 19:26:43.476
76.0, 55.14482484664768, -225.39255062956363, -39.17919193580747, 275.7783527825959, 0.0, 0.01600000075995922, 1.008000047877431, 0.0, 0.0, 0.0, 0.0, 0.0, 1.66977160347694E9, 0.0, 2022-11-29 19:26:43.476
77.0, 45.89605225622654, -243.29545171745121, -18.57234317995608, 278.28034585295245, 0.0, 0.01600000075995922, 1.008000047877431, 0.0, 0.0, 0.0, 0.0, 0.0, 1.669771603500945E9, 0.0, 2022-11-29 19:26:43.500
77.0, 43.19584448821843, -228.20869529619813, -20.719045754522085, 278.7889722469263, 0.0, 0.01600000075995922, 1.008000047877431, 0.0, 0.0, 0.0, 0.0, 0.0, 1.669771603500945E9, 0.0, 2022-11-29 19:26:43.500
78.0, 50.4325509024784, -222.64372416213155, -42.75827619340271, 287.3496032455005, 0.0, 0.01600000075995922, 1.008000047877431, 0.0, 0.0, 0.0, 0.0, 0.0, 1.669771603524954E9, 0.0, 2022-11-29 19:26:43.524
78.0, 63.89993064291775, -229.5139203807339, -32.17809921875596, 289.791757916566, 0.0, 0.01600000075995922, 1.008000047877431, 0.0, 0.0, 0.0, 0.0, 0.0, 1.669771603524954E9, 0.0, 2022-11-29 19:26:43.524
79.0, 55.41409764345735, -230.9612616635859, -37.10728736035526, 274.1402766020037, 0.0, 0.01600000075995922, 1.008000047877431, 0.0, 0.0, 0.0, 0.0, 0.0, 1.669771603548953E9, 0.0, 2022-11-29 19:26:43.548
79.0, 53.60024616494775, -236.0363059034571, -39.84489412792027, 284.0435316846706, 0.0, 0.01600000075995922, 1.008000047877431, 0.0, 0.0, 0.0, 0.0, 0.0, 1.669771603548953E9, 0.0, 2022-11-29 19:26:43.548
80.0, 33.0906348079443, -212.2842012848705, -40.413358921185136, 275.87559018144384, 0.0, 0.01600000075995922, 1.008000047877431, 0.0, 0.0, 0.0, 0.0, 0.0, 1.669771603572942E9, 0.0, 2022-11-29 19:26:43.572
80.0, 45.51084256079048, -228.02544019836932, -28.067949167452753, 268.4369291695766, 0.0, 0.01600000075995922, 1.008000047877431, 0.0, 0.0, 0.0, 0.0, 0.0, 1.669771603572942E9, 0.0, 2022-11-29 19:26:43.572
81.0, 44.897498968057334, -235.83809120580554, -23.868041517212987, 280.35225042840466, 0.0, 0.03200000151991844, 1.008000047877431, 0.0, 0.0, 0.0, 0.0, 0.0, 1.669771603596942E9, 0.0, 2022-11-29 19:26:43.596
81.0, 55.90402453765273, -220.9570292821154, -40.18148512393236, 272.53959942096844, 0.0, 0.03200000151991844, 1.008000047877431, 0.0, 0.0, 0.0, 0.0, 0.0, 1.669771603596942E9, 0.0, 2022-11-29 19:26:43.596
